%OpenBCI Raw EEG Data
%Number of channels = 4
%Sample Rate = 200.0 Hz
%First Column = SampleIndex
%Last Column = Timestamp 
%Other Columns = EEG data in microvolts followed by Accel Data (in G) interleaved with Aux Data
0, -177.74, -187.82, -150.43, -206.58, 0.000, 0.000, 0.000, 23:56:45.889, 1547020605889
1, -187.51, -188.88, -143.97, -202.39, 0.000, 0.000, 0.000, 23:56:45.898, 1547020605898
2, -189.10, -198.42, -140.95, -205.70, 0.000, 0.000, 0.000, 23:56:45.898, 1547020605898
3, -192.11, -196.60, -163.62, -211.47, 0.000, 0.000, 0.000, 23:56:45.913, 1547020605913
4, -192.24, -195.96, -147.83, -212.96, 0.000, 0.000, 0.000, 23:56:45.913, 1547020605913
5, -186.07, -196.01, -157.48, -221.28, 0.000, 0.000, 0.000, 23:56:45.913, 1547020605913
6, -193.25, -202.46, -152.60, -211.29, 0.000, 0.000, 0.000, 23:56:45.913, 1547020605913
7, -175.69, -188.31, -139.10, -199.52, 0.000, 0.000, 0.000, 23:56:45.928, 1547020605928
8, -189.90, -202.76, -160.85, -212.52, 0.000, 0.000, 0.000, 23:56:45.928, 1547020605928
9, -192.36, -207.30, -150.67, -205.57, 0.000, 0.000, 0.000, 23:56:45.943, 1547020605943
10, -194.31, -205.54, -154.26, -208.45, 0.000, 0.000, 0.000, 23:56:45.943, 1547020605943
11, -193.61, -208.23, -174.78, -220.84, 0.000, 0.000, 0.000, 23:56:45.943, 1547020605943
12, -194.69, -203.52, -161.37, -214.01, 0.000, 0.000, 0.000, 23:56:45.943, 1547020605943
13, -184.98, -194.46, -146.78, -207.15, 0.000, 0.000, 0.000, 23:56:45.959, 1547020605959
14, -185.41, -198.12, -144.97, -205.46, 0.000, 0.000, 0.000, 23:56:45.959, 1547020605959
15, -191.71, -197.92, -133.76, -209.14, 0.000, 0.000, 0.000, 23:56:45.973, 1547020605973
16, -190.08, -196.05, -153.25, -206.46, 0.000, 0.000, 0.000, 23:56:45.973, 1547020605973
17, -188.45, -203.00, -150.01, -200.95, 0.000, 0.000, 0.000, 23:56:45.973, 1547020605973
18, -187.96, -192.96, -136.75, -201.92, 0.000, 0.000, 0.000, 23:56:45.973, 1547020605973
19, -184.29, -191.42, -146.16, -207.89, 0.000, 0.000, 0.000, 23:56:45.988, 1547020605988
20, -190.00, -192.57, -162.76, -216.12, 0.000, 0.000, 0.000, 23:56:45.988, 1547020605988
21, -182.29, -188.01, -149.83, -206.13, 0.000, 0.000, 0.000, 23:56:46.003, 1547020606003
22, -190.78, -198.33, -157.99, -215.69, 0.000, 0.000, 0.000, 23:56:46.003, 1547020606003
23, -180.41, -188.77, -139.00, -204.90, 0.000, 0.000, 0.000, 23:56:46.003, 1547020606003
24, -182.08, -190.94, -154.40, -209.49, 0.000, 0.000, 0.000, 23:56:46.003, 1547020606003
25, -196.39, -196.07, -180.90, -224.54, 0.000, 0.000, 0.000, 23:56:46.018, 1547020606018
26, -187.35, -192.22, -166.58, -218.45, 0.000, 0.000, 0.000, 23:56:46.018, 1547020606018
27, -182.21, -190.70, -147.68, -217.43, 0.000, 0.000, 0.000, 23:56:46.033, 1547020606033
28, -181.27, -188.96, -150.35, -217.13, 0.000, 0.000, 0.000, 23:56:46.033, 1547020606033
29, -179.91, -186.40, -154.80, -212.85, 0.000, 0.000, 0.000, 23:56:46.033, 1547020606033
30, -182.66, -185.95, -148.14, -208.54, 0.000, 0.000, 0.000, 23:56:46.033, 1547020606033
31, -181.98, -184.67, -139.07, -202.78, 0.000, 0.000, 0.000, 23:56:46.048, 1547020606048
32, -177.88, -185.44, -148.30, -214.57, 0.000, 0.000, 0.000, 23:56:46.048, 1547020606048
33, -182.29, -186.44, -147.56, -214.35, 0.000, 0.000, 0.000, 23:56:46.063, 1547020606063
34, -184.61, -192.57, -143.42, -206.66, 0.000, 0.000, 0.000, 23:56:46.063, 1547020606063
35, -175.65, -189.42, -138.70, -197.24, 0.000, 0.000, 0.000, 23:56:46.063, 1547020606063
36, -182.75, -195.56, -145.14, -203.40, 0.000, 0.000, 0.000, 23:56:46.063, 1547020606063
37, -193.64, -195.91, -158.68, -210.40, 0.000, 0.000, 0.000, 23:56:46.078, 1547020606078
38, -187.88, -199.31, -171.02, -215.55, 0.000, 0.000, 0.000, 23:56:46.078, 1547020606078
39, -187.57, -194.09, -154.38, -199.27, 0.000, 0.000, 0.000, 23:56:46.093, 1547020606093
40, -181.16, -192.59, -156.39, -206.51, 0.000, 0.000, 0.000, 23:56:46.093, 1547020606093
41, -174.51, -184.90, -137.65, -195.49, 0.000, 0.000, 0.000, 23:56:46.093, 1547020606093
42, -180.24, -186.19, -137.60, -200.63, 0.000, 0.000, 0.000, 23:56:46.093, 1547020606093
43, -183.17, -193.39, -152.22, -214.67, 0.000, 0.000, 0.000, 23:56:46.108, 1547020606108
44, -186.00, -193.12, -153.01, -221.51, 0.000, 0.000, 0.000, 23:56:46.108, 1547020606108
45, -186.64, -197.51, -150.06, -217.35, 0.000, 0.000, 0.000, 23:56:46.123, 1547020606123
46, -175.09, -187.53, -128.61, -200.70, 0.000, 0.000, 0.000, 23:56:46.123, 1547020606123
47, -178.81, -187.23, -129.79, -200.25, 0.000, 0.000, 0.000, 23:56:46.123, 1547020606123
48, -179.43, -185.46, -145.63, -204.17, 0.000, 0.000, 0.000, 23:56:46.123, 1547020606123
49, -187.42, -195.10, -163.71, -217.77, 0.000, 0.000, 0.000, 23:56:46.138, 1547020606138
50, -192.86, -203.33, -160.58, -214.89, 0.000, 0.000, 0.000, 23:56:46.138, 1547020606138
51, -191.47, -197.09, -154.70, -205.82, 0.000, 0.000, 0.000, 23:56:46.153, 1547020606153
52, -182.14, -193.86, -134.75, -193.24, 0.000, 0.000, 0.000, 23:56:46.153, 1547020606153
53, -188.52, -194.08, -148.45, -202.15, 0.000, 0.000, 0.000, 23:56:46.153, 1547020606153
54, -186.71, -191.04, -154.67, -202.19, 0.000, 0.000, 0.000, 23:56:46.153, 1547020606153
55, -185.77, -195.20, -147.85, -200.32, 0.000, 0.000, 0.000, 23:56:46.174, 1547020606174
56, -174.11, -192.10, -141.61, -191.73, 0.000, 0.000, 0.000, 23:56:46.174, 1547020606174
57, -178.24, -183.52, -143.98, -190.60, 0.000, 0.000, 0.000, 23:56:46.183, 1547020606183
58, -187.24, -197.08, -149.60, -200.70, 0.000, 0.000, 0.000, 23:56:46.183, 1547020606183
59, -196.49, -201.41, -152.53, -205.83, 0.000, 0.000, 0.000, 23:56:46.184, 1547020606184
60, -185.01, -192.07, -137.37, -193.09, 0.000, 0.000, 0.000, 23:56:46.184, 1547020606184
61, -187.57, -194.14, -142.10, -199.27, 0.000, 0.000, 0.000, 23:56:46.198, 1547020606198
62, -182.66, -190.21, -141.80, -191.05, 0.000, 0.000, 0.000, 23:56:46.198, 1547020606198
63, -185.72, -193.49, -143.07, -197.73, 0.000, 0.000, 0.000, 23:56:46.213, 1547020606213
64, -197.97, -200.45, -159.55, -220.48, 0.000, 0.000, 0.000, 23:56:46.213, 1547020606213
65, -180.95, -186.33, -151.20, -208.07, 0.000, 0.000, 0.000, 23:56:46.213, 1547020606213
66, -186.71, -192.53, -160.96, -204.76, 0.000, 0.000, 0.000, 23:56:46.213, 1547020606213
67, -180.52, -201.68, -124.24, -180.49, 0.000, 0.000, 0.000, 23:56:46.228, 1547020606228
68, -193.41, -203.53, -137.55, -192.81, 0.000, 0.000, 0.000, 23:56:46.228, 1547020606228
69, -195.08, -193.09, -171.82, -226.81, 0.000, 0.000, 0.000, 23:56:46.243, 1547020606243
70, -191.60, -194.47, -167.99, -215.13, 0.000, 0.000, 0.000, 23:56:46.243, 1547020606243
71, -192.72, -197.90, -152.99, -201.17, 0.000, 0.000, 0.000, 23:56:46.243, 1547020606243
72, -203.59, -206.10, -163.49, -211.63, 0.000, 0.000, 0.000, 23:56:46.243, 1547020606243
73, -202.36, -200.77, -173.79, -230.96, 0.000, 0.000, 0.000, 23:56:46.258, 1547020606258
74, -211.70, -205.32, -188.68, -239.75, 0.000, 0.000, 0.000, 23:56:46.258, 1547020606258
75, -221.40, -216.92, -181.73, -235.97, 0.000, 0.000, 0.000, 23:56:46.273, 1547020606273
76, -205.21, -213.86, -168.21, -223.66, 0.000, 0.000, 0.000, 23:56:46.273, 1547020606273
77, -201.32, -209.08, -177.40, -221.58, 0.000, 0.000, 0.000, 23:56:46.273, 1547020606273
78, -216.33, -215.57, -162.22, -215.08, 0.000, 0.000, 0.000, 23:56:46.273, 1547020606273
79, -192.33, -204.31, -161.74, -216.62, 0.000, 0.000, 0.000, 23:56:46.288, 1547020606288
80, -202.56, -210.13, -165.45, -214.17, 0.000, 0.000, 0.000, 23:56:46.288, 1547020606288
81, -203.44, -206.35, -143.96, -205.12, 0.000, 0.000, 0.000, 23:56:46.303, 1547020606303
82, -206.93, -213.24, -159.01, -212.52, 0.000, 0.000, 0.000, 23:56:46.303, 1547020606303
83, -199.33, -205.78, -148.23, -209.30, 0.000, 0.000, 0.000, 23:56:46.303, 1547020606303
84, -201.87, -209.57, -167.29, -217.97, 0.000, 0.000, 0.000, 23:56:46.303, 1547020606303
85, -197.44, -206.39, -173.97, -219.62, 0.000, 0.000, 0.000, 23:56:46.318, 1547020606318
86, -191.74, -206.57, -148.31, -208.82, 0.000, 0.000, 0.000, 23:56:46.318, 1547020606318
87, -186.08, -197.26, -151.19, -202.51, 0.000, 0.000, 0.000, 23:56:46.333, 1547020606333
88, -192.33, -199.31, -169.01, -214.68, 0.000, 0.000, 0.000, 23:56:46.333, 1547020606333
89, -180.74, -196.58, -153.69, -214.07, 0.000, 0.000, 0.000, 23:56:46.333, 1547020606333
90, -190.57, -197.23, -151.32, -206.61, 0.000, 0.000, 0.000, 23:56:46.333, 1547020606333
91, -192.66, -199.01, -144.91, -203.01, 0.000, 0.000, 0.000, 23:56:46.348, 1547020606348
92, -194.28, -203.97, -157.30, -207.13, 0.000, 0.000, 0.000, 23:56:46.348, 1547020606348
93, -189.10, -194.42, -153.02, -205.74, 0.000, 0.000, 0.000, 23:56:46.363, 1547020606363
94, -188.29, -197.15, -147.77, -201.23, 0.000, 0.000, 0.000, 23:56:46.363, 1547020606363
95, -192.13, -203.68, -151.27, -200.12, 0.000, 0.000, 0.000, 23:56:46.363, 1547020606363
96, -183.49, -193.20, -142.88, -200.33, 0.000, 0.000, 0.000, 23:56:46.363, 1547020606363
97, -199.33, -202.79, -158.47, -212.38, 0.000, 0.000, 0.000, 23:56:46.378, 1547020606378
98, -205.08, -214.19, -177.10, -224.35, 0.000, 0.000, 0.000, 23:56:46.378, 1547020606378
99, -178.77, -192.73, -146.44, -199.89, 0.000, 0.000, 0.000, 23:56:46.392, 1547020606392
100, -184.61, -193.93, -149.77, -206.26, 0.000, 0.000, 0.000, 23:56:46.392, 1547020606392
101, -184.28, -191.45, -152.86, -206.89, 0.000, 0.000, 0.000, 23:56:46.393, 1547020606393
102, -197.55, -200.14, -156.54, -208.88, 0.000, 0.000, 0.000, 23:56:46.393, 1547020606393
103, -185.78, -196.02, -159.95, -215.25, 0.000, 0.000, 0.000, 23:56:46.408, 1547020606408
104, -193.87, -197.69, -166.08, -218.07, 0.000, 0.000, 0.000, 23:56:46.408, 1547020606408
105, -190.42, -193.60, -158.52, -212.24, 0.000, 0.000, 0.000, 23:56:46.423, 1547020606423
106, -185.04, -192.11, -134.55, -199.58, 0.000, 0.000, 0.000, 23:56:46.423, 1547020606423
107, -188.69, -195.40, -139.65, -202.79, 0.000, 0.000, 0.000, 23:56:46.423, 1547020606423
108, -187.92, -203.77, -154.34, -220.71, 0.000, 0.000, 0.000, 23:56:46.423, 1547020606423
109, -190.84, -199.67, -163.37, -223.97, 0.000, 0.000, 0.000, 23:56:46.438, 1547020606438
110, -199.72, -203.85, -178.36, -216.18, 0.000, 0.000, 0.000, 23:56:46.438, 1547020606438
111, -189.11, -200.08, -155.81, -215.84, 0.000, 0.000, 0.000, 23:56:46.453, 1547020606453
112, -192.87, -203.39, -159.16, -230.10, 0.000, 0.000, 0.000, 23:56:46.453, 1547020606453
113, -205.55, -215.89, -173.15, -235.22, 0.000, 0.000, 0.000, 23:56:46.454, 1547020606454
114, -203.22, -210.10, -176.03, -231.43, 0.000, 0.000, 0.000, 23:56:46.454, 1547020606454
115, -206.70, -213.62, -178.93, -236.40, 0.000, 0.000, 0.000, 23:56:46.468, 1547020606468
116, -215.57, -221.39, -181.68, -238.19, 0.000, 0.000, 0.000, 23:56:46.468, 1547020606468
117, -206.57, -207.99, -166.02, -221.89, 0.000, 0.000, 0.000, 23:56:46.484, 1547020606484
118, -187.49, -201.67, -155.30, -209.06, 0.000, 0.000, 0.000, 23:56:46.484, 1547020606484
119, -190.13, -203.77, -159.66, -218.61, 0.000, 0.000, 0.000, 23:56:46.485, 1547020606485
120, -193.81, -203.63, -152.48, -213.84, 0.000, 0.000, 0.000, 23:56:46.485, 1547020606485
121, -194.40, -202.93, -162.83, -217.94, 0.000, 0.000, 0.000, 23:56:46.498, 1547020606498
122, -199.01, -204.56, -156.70, -219.73, 0.000, 0.000, 0.000, 23:56:46.498, 1547020606498
123, -197.10, -205.88, -155.64, -211.58, 0.000, 0.000, 0.000, 23:56:46.513, 1547020606513
124, -198.11, -204.86, -166.36, -216.47, 0.000, 0.000, 0.000, 23:56:46.513, 1547020606513
125, -200.49, -203.33, -167.08, -216.88, 0.000, 0.000, 0.000, 23:56:46.514, 1547020606514
126, -199.05, -208.20, -177.82, -232.43, 0.000, 0.000, 0.000, 23:56:46.514, 1547020606514
127, -206.29, -210.57, -168.07, -217.29, 0.000, 0.000, 0.000, 23:56:46.528, 1547020606528
128, -195.87, -202.29, -160.55, -215.79, 0.000, 0.000, 0.000, 23:56:46.528, 1547020606528
129, -201.83, -206.98, -168.78, -221.48, 0.000, 0.000, 0.000, 23:56:46.543, 1547020606543
130, -197.95, -210.19, -166.76, -219.85, 0.000, 0.000, 0.000, 23:56:46.543, 1547020606543
131, -202.78, -216.03, -180.61, -229.86, 0.000, 0.000, 0.000, 23:56:46.543, 1547020606543
132, -201.11, -215.43, -175.58, -231.41, 0.000, 0.000, 0.000, 23:56:46.543, 1547020606543
133, -187.10, -194.93, -153.84, -212.50, 0.000, 0.000, 0.000, 23:56:46.558, 1547020606558
134, -173.08, -187.23, -147.11, -204.58, 0.000, 0.000, 0.000, 23:56:46.558, 1547020606558
135, -182.50, -192.91, -145.45, -208.22, 0.000, 0.000, 0.000, 23:56:46.573, 1547020606573
136, -192.85, -196.16, -152.83, -210.24, 0.000, 0.000, 0.000, 23:56:46.573, 1547020606573
137, -197.05, -197.50, -155.77, -208.22, 0.000, 0.000, 0.000, 23:56:46.573, 1547020606573
138, -191.17, -199.53, -146.08, -206.98, 0.000, 0.000, 0.000, 23:56:46.573, 1547020606573
139, -187.85, -195.89, -148.21, -203.66, 0.000, 0.000, 0.000, 23:56:46.588, 1547020606588
140, -191.53, -200.58, -155.76, -205.46, 0.000, 0.000, 0.000, 23:56:46.588, 1547020606588
141, -189.32, -195.20, -144.08, -203.79, 0.000, 0.000, 0.000, 23:56:46.602, 1547020606602
142, -186.06, -195.12, -157.26, -210.14, 0.000, 0.000, 0.000, 23:56:46.602, 1547020606602
143, -201.38, -206.40, -186.22, -239.02, 0.000, 0.000, 0.000, 23:56:46.603, 1547020606603
144, -194.76, -197.96, -170.49, -228.03, 0.000, 0.000, 0.000, 23:56:46.603, 1547020606603
145, -194.62, -197.76, -151.30, -215.21, 0.000, 0.000, 0.000, 23:56:46.618, 1547020606618
146, -202.03, -209.14, -175.99, -232.82, 0.000, 0.000, 0.000, 23:56:46.618, 1547020606618
147, -204.10, -205.62, -171.33, -222.62, 0.000, 0.000, 0.000, 23:56:46.633, 1547020606633
148, -188.72, -197.84, -165.79, -215.27, 0.000, 0.000, 0.000, 23:56:46.633, 1547020606633
149, -189.30, -198.90, -158.32, -209.76, 0.000, 0.000, 0.000, 23:56:46.633, 1547020606633
150, -199.15, -196.43, -146.82, -207.27, 0.000, 0.000, 0.000, 23:56:46.633, 1547020606633
151, -207.71, -210.81, -165.24, -228.09, 0.000, 0.000, 0.000, 23:56:46.648, 1547020606648
152, -198.54, -201.91, -169.42, -223.24, 0.000, 0.000, 0.000, 23:56:46.648, 1547020606648
153, -191.75, -197.43, -161.55, -214.76, 0.000, 0.000, 0.000, 23:56:46.663, 1547020606663
154, -192.67, -203.44, -164.15, -217.05, 0.000, 0.000, 0.000, 23:56:46.663, 1547020606663
155, -190.74, -202.15, -164.37, -222.25, 0.000, 0.000, 0.000, 23:56:46.663, 1547020606663
156, -184.78, -197.72, -156.63, -215.27, 0.000, 0.000, 0.000, 23:56:46.663, 1547020606663
157, -191.44, -197.75, -163.61, -218.06, 0.000, 0.000, 0.000, 23:56:46.678, 1547020606678
158, -183.57, -195.61, -157.29, -216.32, 0.000, 0.000, 0.000, 23:56:46.678, 1547020606678
159, -180.74, -186.57, -146.25, -208.77, 0.000, 0.000, 0.000, 23:56:46.693, 1547020606693
160, -175.82, -182.19, -157.55, -215.35, 0.000, 0.000, 0.000, 23:56:46.693, 1547020606693
161, -158.93, -162.69, -152.99, -207.86, 0.000, 0.000, 0.000, 23:56:46.693, 1547020606693
162, -158.68, -162.61, -146.64, -211.10, 0.000, 0.000, 0.000, 23:56:46.693, 1547020606693
163, -144.38, -148.37, -147.85, -206.35, 0.000, 0.000, 0.000, 23:56:46.708, 1547020606708
164, -131.72, -139.59, -165.15, -219.11, 0.000, 0.000, 0.000, 23:56:46.708, 1547020606708
165, -123.97, -121.86, -157.93, -214.70, 0.000, 0.000, 0.000, 23:56:46.723, 1547020606723
166, -88.77, -93.70, -141.00, -203.95, 0.000, 0.000, 0.000, 23:56:46.723, 1547020606723
167, -79.27, -81.59, -135.66, -195.80, 0.000, 0.000, 0.000, 23:56:46.724, 1547020606724
168, -72.88, -63.89, -137.73, -203.66, 0.000, 0.000, 0.000, 23:56:46.724, 1547020606724
169, -62.97, -43.88, -131.70, -197.24, 0.000, 0.000, 0.000, 23:56:46.738, 1547020606738
170, -70.39, -54.42, -148.82, -206.95, 0.000, 0.000, 0.000, 23:56:46.738, 1547020606738
171, -47.00, -43.81, -131.01, -195.49, 0.000, 0.000, 0.000, 23:56:46.754, 1547020606754
172, -67.34, -60.30, -150.99, -207.45, 0.000, 0.000, 0.000, 23:56:46.754, 1547020606754
173, -62.86, -48.97, -148.92, -213.85, 0.000, 0.000, 0.000, 23:56:46.755, 1547020606755
174, -91.54, -86.11, -147.11, -210.75, 0.000, 0.000, 0.000, 23:56:46.755, 1547020606755
175, -102.95, -93.99, -148.08, -204.65, 0.000, 0.000, 0.000, 23:56:46.768, 1547020606768
176, -124.23, -126.53, -137.83, -193.18, 0.000, 0.000, 0.000, 23:56:46.768, 1547020606768
177, -144.30, -140.07, -158.04, -223.52, 0.000, 0.000, 0.000, 23:56:46.783, 1547020606783
178, -171.54, -175.92, -171.70, -226.31, 0.000, 0.000, 0.000, 23:56:46.783, 1547020606783
179, -179.37, -177.32, -161.02, -216.40, 0.000, 0.000, 0.000, 23:56:46.783, 1547020606783
180, -181.18, -187.29, -161.93, -216.73, 0.000, 0.000, 0.000, 23:56:46.783, 1547020606783
181, -202.06, -204.04, -166.70, -220.95, 0.000, 0.000, 0.000, 23:56:46.798, 1547020606798
182, -206.31, -210.45, -165.09, -222.06, 0.000, 0.000, 0.000, 23:56:46.798, 1547020606798
183, -207.50, -212.70, -150.57, -212.03, 0.000, 0.000, 0.000, 23:56:46.813, 1547020606813
184, -223.76, -229.70, -173.96, -224.82, 0.000, 0.000, 0.000, 23:56:46.813, 1547020606813
185, -219.99, -226.15, -171.62, -218.93, 0.000, 0.000, 0.000, 23:56:46.813, 1547020606813
186, -230.93, -236.36, -163.33, -218.24, 0.000, 0.000, 0.000, 23:56:46.813, 1547020606813
187, -227.10, -236.49, -161.51, -218.25, 0.000, 0.000, 0.000, 23:56:46.828, 1547020606828
188, -229.80, -237.98, -160.31, -220.20, 0.000, 0.000, 0.000, 23:56:46.828, 1547020606828
189, -235.44, -232.70, -171.60, -226.17, 0.000, 0.000, 0.000, 23:56:46.843, 1547020606843
190, -231.92, -233.96, -168.15, -219.42, 0.000, 0.000, 0.000, 23:56:46.843, 1547020606843
191, -230.99, -239.11, -160.55, -215.97, 0.000, 0.000, 0.000, 23:56:46.843, 1547020606843
192, -238.36, -245.53, -169.46, -232.52, 0.000, 0.000, 0.000, 23:56:46.843, 1547020606843
193, -245.29, -247.91, -179.46, -226.32, 0.000, 0.000, 0.000, 23:56:46.859, 1547020606859
194, -245.35, -250.64, -179.96, -228.27, 0.000, 0.000, 0.000, 23:56:46.859, 1547020606859
195, -229.86, -235.81, -160.22, -218.30, 0.000, 0.000, 0.000, 23:56:46.872, 1547020606872
196, -228.62, -236.51, -164.49, -219.48, 0.000, 0.000, 0.000, 23:56:46.872, 1547020606872
197, -226.68, -234.88, -156.11, -212.23, 0.000, 0.000, 0.000, 23:56:46.873, 1547020606873
198, -236.57, -247.68, -169.54, -221.80, 0.000, 0.000, 0.000, 23:56:46.873, 1547020606873
199, -232.01, -243.50, -175.74, -224.35, 0.000, 0.000, 0.000, 23:56:46.888, 1547020606888
200, -226.72, -238.72, -168.25, -215.45, 0.000, 0.000, 0.000, 23:56:46.888, 1547020606888
0, -228.06, -237.08, -160.81, -213.16, 0.000, 0.000, 0.000, 23:56:46.888, 1547020606888
1, -231.61, -240.76, -173.56, -219.09, 0.000, 0.000, 0.000, 23:56:46.903, 1547020606903
2, -224.06, -236.47, -169.07, -219.41, 0.000, 0.000, 0.000, 23:56:46.903, 1547020606903
3, -228.37, -232.36, -163.94, -213.84, 0.000, 0.000, 0.000, 23:56:46.918, 1547020606918
4, -230.60, -232.40, -168.77, -218.85, 0.000, 0.000, 0.000, 23:56:46.918, 1547020606918
5, -218.51, -230.13, -160.04, -215.51, 0.000, 0.000, 0.000, 23:56:46.918, 1547020606918
6, -215.99, -226.99, -159.90, -215.88, 0.000, 0.000, 0.000, 23:56:46.918, 1547020606918
7, -215.13, -223.71, -162.52, -220.75, 0.000, 0.000, 0.000, 23:56:46.933, 1547020606933
8, -213.82, -227.61, -170.86, -220.41, 0.000, 0.000, 0.000, 23:56:46.933, 1547020606933
9, -207.48, -218.32, -158.85, -210.53, 0.000, 0.000, 0.000, 23:56:46.948, 1547020606948
10, -207.87, -218.25, -162.51, -217.45, 0.000, 0.000, 0.000, 23:56:46.948, 1547020606948
11, -206.81, -216.26, -162.57, -217.13, 0.000, 0.000, 0.000, 23:56:46.948, 1547020606948
12, -217.66, -224.29, -169.98, -221.66, 0.000, 0.000, 0.000, 23:56:46.948, 1547020606948
13, -206.79, -213.41, -150.82, -208.12, 0.000, 0.000, 0.000, 23:56:46.963, 1547020606963
14, -208.91, -216.32, -146.54, -211.24, 0.000, 0.000, 0.000, 23:56:46.963, 1547020606963
15, -204.07, -213.42, -159.82, -219.50, 0.000, 0.000, 0.000, 23:56:46.977, 1547020606977
16, -209.13, -216.79, -166.28, -228.07, 0.000, 0.000, 0.000, 23:56:46.978, 1547020606978
17, -207.90, -211.29, -163.18, -220.49, 0.000, 0.000, 0.000, 23:56:46.978, 1547020606978
18, -214.18, -218.96, -158.21, -222.24, 0.000, 0.000, 0.000, 23:56:46.978, 1547020606978
19, -208.67, -211.43, -157.96, -216.38, 0.000, 0.000, 0.000, 23:56:46.993, 1547020606993
20, -204.62, -212.85, -165.99, -215.60, 0.000, 0.000, 0.000, 23:56:46.993, 1547020606993
21, -210.81, -219.29, -163.49, -217.04, 0.000, 0.000, 0.000, 23:56:47.008, 1547020607008
22, -206.88, -215.85, -161.76, -218.67, 0.000, 0.000, 0.000, 23:56:47.008, 1547020607008
23, -200.58, -205.99, -158.77, -218.01, 0.000, 0.000, 0.000, 23:56:47.008, 1547020607008
24, -201.27, -208.00, -172.36, -221.97, 0.000, 0.000, 0.000, 23:56:47.008, 1547020607008
25, -193.35, -199.50, -151.64, -208.45, 0.000, 0.000, 0.000, 23:56:47.023, 1547020607023
26, -188.82, -194.88, -161.79, -216.10, 0.000, 0.000, 0.000, 23:56:47.023, 1547020607023
27, -192.44, -194.89, -159.94, -209.37, 0.000, 0.000, 0.000, 23:56:47.037, 1547020607037
28, -193.88, -201.33, -161.82, -211.43, 0.000, 0.000, 0.000, 23:56:47.037, 1547020607037
29, -197.19, -204.56, -158.02, -208.52, 0.000, 0.000, 0.000, 23:56:47.038, 1547020607038
30, -189.87, -189.39, -155.84, -205.02, 0.000, 0.000, 0.000, 23:56:47.038, 1547020607038
31, -193.40, -203.90, -162.77, -220.94, 0.000, 0.000, 0.000, 23:56:47.053, 1547020607053
32, -189.28, -195.75, -160.70, -214.67, 0.000, 0.000, 0.000, 23:56:47.053, 1547020607053
33, -191.07, -196.47, -158.53, -212.06, 0.000, 0.000, 0.000, 23:56:47.068, 1547020607068
34, -180.72, -194.85, -151.22, -211.72, 0.000, 0.000, 0.000, 23:56:47.068, 1547020607068
35, -190.69, -197.27, -154.60, -207.02, 0.000, 0.000, 0.000, 23:56:47.068, 1547020607068
36, -185.56, -190.05, -157.12, -207.73, 0.000, 0.000, 0.000, 23:56:47.068, 1547020607068
37, -199.15, -205.44, -151.85, -221.00, 0.000, 0.000, 0.000, 23:56:47.083, 1547020607083
38, -192.87, -202.78, -153.88, -219.46, 0.000, 0.000, 0.000, 23:56:47.083, 1547020607083
39, -194.61, -204.17, -169.40, -221.64, 0.000, 0.000, 0.000, 23:56:47.098, 1547020607098
40, -192.58, -197.41, -155.48, -207.24, 0.000, 0.000, 0.000, 23:56:47.098, 1547020607098
41, -197.46, -199.50, -161.47, -215.28, 0.000, 0.000, 0.000, 23:56:47.098, 1547020607098
42, -193.39, -198.12, -158.07, -211.67, 0.000, 0.000, 0.000, 23:56:47.098, 1547020607098
43, -186.56, -193.34, -160.14, -213.56, 0.000, 0.000, 0.000, 23:56:47.120, 1547020607120
44, -190.18, -201.63, -157.63, -209.38, 0.000, 0.000, 0.000, 23:56:47.120, 1547020607120
45, -186.16, -197.66, -155.63, -213.65, 0.000, 0.000, 0.000, 23:56:47.128, 1547020607128
46, -183.98, -192.40, -154.20, -208.47, 0.000, 0.000, 0.000, 23:56:47.128, 1547020607128
47, -189.12, -198.64, -154.29, -209.37, 0.000, 0.000, 0.000, 23:56:47.129, 1547020607129
48, -185.49, -191.53, -153.06, -215.65, 0.000, 0.000, 0.000, 23:56:47.129, 1547020607129
49, -216.38, -223.21, -174.62, -233.12, 0.000, 0.000, 0.000, 23:56:47.142, 1547020607142
50, -180.81, -185.55, -143.58, -197.75, 0.000, 0.000, 0.000, 23:56:47.142, 1547020607142
51, -192.27, -199.56, -172.70, -224.52, 0.000, 0.000, 0.000, 23:56:47.158, 1547020607158
52, -177.39, -188.23, -147.48, -199.82, 0.000, 0.000, 0.000, 23:56:47.158, 1547020607158
53, -171.61, -177.90, -135.06, -191.13, 0.000, 0.000, 0.000, 23:56:47.159, 1547020607159
54, -212.97, -213.97, -175.52, -236.70, 0.000, 0.000, 0.000, 23:56:47.159, 1547020607159
55, -200.27, -206.04, -166.07, -224.86, 0.000, 0.000, 0.000, 23:56:47.173, 1547020607173
56, -183.67, -193.39, -151.51, -207.75, 0.000, 0.000, 0.000, 23:56:47.173, 1547020607173
57, -203.52, -203.21, -177.58, -218.44, 0.000, 0.000, 0.000, 23:56:47.188, 1547020607188
58, -198.90, -203.10, -178.51, -229.43, 0.000, 0.000, 0.000, 23:56:47.188, 1547020607188
59, -195.78, -202.96, -160.26, -220.11, 0.000, 0.000, 0.000, 23:56:47.188, 1547020607188
60, -227.34, -237.18, -200.01, -258.44, 0.000, 0.000, 0.000, 23:56:47.188, 1547020607188
61, -204.71, -217.14, -151.43, -202.02, 0.000, 0.000, 0.000, 23:56:47.203, 1547020607203
62, -203.91, -214.25, -166.62, -210.06, 0.000, 0.000, 0.000, 23:56:47.203, 1547020607203
63, -176.68, -187.49, -169.14, -222.90, 0.000, 0.000, 0.000, 23:56:47.218, 1547020607218
64, -217.79, -221.45, -197.78, -252.67, 0.000, 0.000, 0.000, 23:56:47.218, 1547020607218
65, -170.04, -178.94, -152.01, -213.13, 0.000, 0.000, 0.000, 23:56:47.218, 1547020607218
66, -165.53, -184.80, -162.78, -226.45, 0.000, 0.000, 0.000, 23:56:47.218, 1547020607218
67, -161.25, -178.34, -175.67, -227.28, 0.000, 0.000, 0.000, 23:56:47.233, 1547020607233
68, -148.23, -161.86, -145.88, -209.22, 0.000, 0.000, 0.000, 23:56:47.233, 1547020607233
69, -158.87, -176.24, -160.68, -221.22, 0.000, 0.000, 0.000, 23:56:47.248, 1547020607248
70, -163.51, -179.62, -173.34, -233.52, 0.000, 0.000, 0.000, 23:56:47.248, 1547020607248
71, -168.56, -179.27, -155.01, -226.67, 0.000, 0.000, 0.000, 23:56:47.248, 1547020607248
72, -198.19, -202.35, -168.42, -227.12, 0.000, 0.000, 0.000, 23:56:47.248, 1547020607248
73, -196.22, -204.74, -156.80, -210.62, 0.000, 0.000, 0.000, 23:56:47.263, 1547020607263
74, -199.24, -208.44, -146.97, -205.71, 0.000, 0.000, 0.000, 23:56:47.263, 1547020607263
75, -204.83, -219.31, -164.81, -217.08, 0.000, 0.000, 0.000, 23:56:47.278, 1547020607278
76, -213.05, -223.45, -165.37, -220.16, 0.000, 0.000, 0.000, 23:56:47.278, 1547020607278
77, -203.72, -212.94, -154.63, -205.86, 0.000, 0.000, 0.000, 23:56:47.278, 1547020607278
78, -204.98, -224.47, -155.29, -214.14, 0.000, 0.000, 0.000, 23:56:47.278, 1547020607278
79, -217.29, -225.75, -156.11, -214.53, 0.000, 0.000, 0.000, 23:56:47.293, 1547020607293
80, -206.43, -217.15, -157.13, -216.04, 0.000, 0.000, 0.000, 23:56:47.293, 1547020607293
81, -221.26, -237.03, -171.23, -227.23, 0.000, 0.000, 0.000, 23:56:47.308, 1547020607308
82, -199.95, -209.97, -158.07, -213.17, 0.000, 0.000, 0.000, 23:56:47.308, 1547020607308
83, -198.40, -206.02, -163.02, -218.58, 0.000, 0.000, 0.000, 23:56:47.308, 1547020607308
84, -197.06, -212.00, -151.85, -212.95, 0.000, 0.000, 0.000, 23:56:47.308, 1547020607308
85, -200.23, -215.95, -165.86, -211.94, 0.000, 0.000, 0.000, 23:56:47.323, 1547020607323
86, -182.03, -201.01, -160.16, -203.16, 0.000, 0.000, 0.000, 23:56:47.323, 1547020607323
87, -195.68, -216.52, -160.87, -218.85, 0.000, 0.000, 0.000, 23:56:47.338, 1547020607338
88, -190.47, -203.38, -157.49, -217.97, 0.000, 0.000, 0.000, 23:56:47.338, 1547020607338
89, -200.71, -206.08, -157.64, -217.68, 0.000, 0.000, 0.000, 23:56:47.338, 1547020607338
90, -182.99, -202.94, -132.95, -205.67, 0.000, 0.000, 0.000, 23:56:47.338, 1547020607338
91, -188.40, -201.31, -150.11, -212.54, 0.000, 0.000, 0.000, 23:56:47.353, 1547020607353
92, -192.88, -207.76, -162.62, -216.04, 0.000, 0.000, 0.000, 23:56:47.353, 1547020607353
93, -181.31, -198.70, -155.72, -220.05, 0.000, 0.000, 0.000, 23:56:47.368, 1547020607368
94, -189.81, -203.33, -163.29, -225.28, 0.000, 0.000, 0.000, 23:56:47.368, 1547020607368
95, -188.10, -197.33, -170.66, -230.75, 0.000, 0.000, 0.000, 23:56:47.368, 1547020607368
96, -179.96, -186.18, -160.52, -215.94, 0.000, 0.000, 0.000, 23:56:47.368, 1547020607368
97, -179.78, -190.78, -156.60, -218.31, 0.000, 0.000, 0.000, 23:56:47.383, 1547020607383
98, -170.14, -181.51, -146.39, -205.53, 0.000, 0.000, 0.000, 23:56:47.383, 1547020607383
99, -185.84, -196.59, -156.19, -213.00, 0.000, 0.000, 0.000, 23:56:47.398, 1547020607398
100, -182.14, -191.12, -160.87, -214.34, 0.000, 0.000, 0.000, 23:56:47.398, 1547020607398
101, -165.97, -177.02, -158.36, -215.58, 0.000, 0.000, 0.000, 23:56:47.398, 1547020607398
102, -168.64, -178.93, -121.95, -189.78, 0.000, 0.000, 0.000, 23:56:47.398, 1547020607398
103, -170.89, -180.84, -139.74, -203.65, 0.000, 0.000, 0.000, 23:56:47.413, 1547020607413
104, -188.00, -199.62, -157.18, -210.89, 0.000, 0.000, 0.000, 23:56:47.413, 1547020607413
105, -192.48, -204.60, -156.37, -214.61, 0.000, 0.000, 0.000, 23:56:47.428, 1547020607428
106, -173.46, -197.20, -157.00, -216.26, 0.000, 0.000, 0.000, 23:56:47.428, 1547020607428
107, -176.36, -190.82, -159.62, -212.33, 0.000, 0.000, 0.000, 23:56:47.429, 1547020607429
108, -183.32, -183.76, -153.48, -210.16, 0.000, 0.000, 0.000, 23:56:47.429, 1547020607429
109, -178.97, -189.93, -141.58, -199.30, 0.000, 0.000, 0.000, 23:56:47.443, 1547020607443
110, -182.16, -195.88, -141.50, -208.74, 0.000, 0.000, 0.000, 23:56:47.443, 1547020607443
111, -179.68, -195.82, -154.32, -212.16, 0.000, 0.000, 0.000, 23:56:47.458, 1547020607458
112, -175.98, -185.58, -153.11, -204.17, 0.000, 0.000, 0.000, 23:56:47.458, 1547020607458
113, -176.44, -190.91, -150.30, -205.45, 0.000, 0.000, 0.000, 23:56:47.459, 1547020607459
114, -171.84, -187.97, -150.20, -207.47, 0.000, 0.000, 0.000, 23:56:47.459, 1547020607459
115, -172.28, -186.61, -137.15, -197.71, 0.000, 0.000, 0.000, 23:56:47.473, 1547020607473
116, -178.92, -189.62, -143.41, -211.92, 0.000, 0.000, 0.000, 23:56:47.473, 1547020607473
117, -174.55, -187.01, -153.87, -208.30, 0.000, 0.000, 0.000, 23:56:47.488, 1547020607488
118, -176.22, -187.34, -149.64, -207.29, 0.000, 0.000, 0.000, 23:56:47.488, 1547020607488
119, -169.93, -180.23, -148.31, -208.03, 0.000, 0.000, 0.000, 23:56:47.488, 1547020607488
120, -171.35, -178.78, -143.21, -208.83, 0.000, 0.000, 0.000, 23:56:47.488, 1547020607488
121, -180.31, -187.63, -144.03, -209.55, 0.000, 0.000, 0.000, 23:56:47.503, 1547020607503
122, -174.08, -187.92, -138.77, -201.63, 0.000, 0.000, 0.000, 23:56:47.503, 1547020607503
123, -171.71, -184.95, -135.61, -205.60, 0.000, 0.000, 0.000, 23:56:47.518, 1547020607518
124, -175.28, -183.26, -159.07, -208.14, 0.000, 0.000, 0.000, 23:56:47.518, 1547020607518
125, -176.52, -184.82, -168.17, -210.60, 0.000, 0.000, 0.000, 23:56:47.518, 1547020607518
126, -171.25, -177.00, -158.99, -205.46, 0.000, 0.000, 0.000, 23:56:47.518, 1547020607518
127, -175.41, -188.72, -155.44, -207.28, 0.000, 0.000, 0.000, 23:56:47.533, 1547020607533
128, -172.30, -182.94, -147.38, -201.17, 0.000, 0.000, 0.000, 23:56:47.533, 1547020607533
129, -179.54, -185.03, -146.25, -203.96, 0.000, 0.000, 0.000, 23:56:47.548, 1547020607548
130, -186.67, -192.31, -168.42, -212.19, 0.000, 0.000, 0.000, 23:56:47.548, 1547020607548
131, -173.58, -181.86, -142.31, -195.23, 0.000, 0.000, 0.000, 23:56:47.548, 1547020607548
132, -170.83, -177.69, -140.85, -186.37, 0.000, 0.000, 0.000, 23:56:47.548, 1547020607548
133, -174.04, -180.21, -146.59, -202.17, 0.000, 0.000, 0.000, 23:56:47.569, 1547020607569
134, -183.63, -189.87, -160.77, -206.77, 0.000, 0.000, 0.000, 23:56:47.569, 1547020607569
135, -177.80, -185.87, -150.59, -202.12, 0.000, 0.000, 0.000, 23:56:47.578, 1547020607578
136, -179.71, -181.16, -134.45, -194.23, 0.000, 0.000, 0.000, 23:56:47.578, 1547020607578
137, -184.76, -192.94, -138.81, -195.84, 0.000, 0.000, 0.000, 23:56:47.578, 1547020607578
138, -177.03, -187.45, -120.42, -189.79, 0.000, 0.000, 0.000, 23:56:47.578, 1547020607578
139, -170.77, -179.80, -97.65, -183.60, 0.000, 0.000, 0.000, 23:56:47.593, 1547020607593
140, -180.73, -181.90, -172.20, -212.85, 0.000, 0.000, 0.000, 23:56:47.593, 1547020607593
141, -181.34, -192.03, -162.58, -206.64, 0.000, 0.000, 0.000, 23:56:47.608, 1547020607608
142, -181.29, -192.77, -144.00, -200.80, 0.000, 0.000, 0.000, 23:56:47.608, 1547020607608
143, -193.05, -194.41, -144.75, -205.31, 0.000, 0.000, 0.000, 23:56:47.608, 1547020607608
144, -184.20, -196.74, -140.88, -205.79, 0.000, 0.000, 0.000, 23:56:47.608, 1547020607608
145, -186.14, -195.15, -151.33, -206.30, 0.000, 0.000, 0.000, 23:56:47.623, 1547020607623
146, -180.27, -190.55, -149.44, -202.84, 0.000, 0.000, 0.000, 23:56:47.623, 1547020607623
147, -175.67, -185.53, -144.05, -196.63, 0.000, 0.000, 0.000, 23:56:47.638, 1547020607638
148, -177.91, -190.57, -139.81, -180.32, 0.000, 0.000, 0.000, 23:56:47.638, 1547020607638
149, -181.67, -190.62, -149.70, -198.69, 0.000, 0.000, 0.000, 23:56:47.639, 1547020607639
150, -183.79, -193.97, -157.35, -214.89, 0.000, 0.000, 0.000, 23:56:47.639, 1547020607639
151, -170.00, -179.15, -136.59, -198.81, 0.000, 0.000, 0.000, 23:56:47.653, 1547020607653
152, -174.17, -180.08, -130.78, -196.02, 0.000, 0.000, 0.000, 23:56:47.653, 1547020607653
153, -175.82, -184.87, -125.85, -197.20, 0.000, 0.000, 0.000, 23:56:47.668, 1547020607668
154, -172.76, -184.19, -134.63, -203.54, 0.000, 0.000, 0.000, 23:56:47.668, 1547020607668
155, -177.05, -188.23, -160.18, -216.23, 0.000, 0.000, 0.000, 23:56:47.668, 1547020607668
156, -177.19, -182.10, -139.65, -201.32, 0.000, 0.000, 0.000, 23:56:47.668, 1547020607668
157, -176.86, -180.29, -143.67, -201.57, 0.000, 0.000, 0.000, 23:56:47.684, 1547020607684
158, -172.49, -182.09, -145.92, -204.11, 0.000, 0.000, 0.000, 23:56:47.684, 1547020607684
159, -177.33, -186.02, -133.69, -196.67, 0.000, 0.000, 0.000, 23:56:47.698, 1547020607698
160, -184.84, -185.24, -154.01, -208.74, 0.000, 0.000, 0.000, 23:56:47.698, 1547020607698
161, -179.43, -186.56, -163.79, -218.08, 0.000, 0.000, 0.000, 23:56:47.698, 1547020607698
162, -168.68, -179.23, -144.41, -206.07, 0.000, 0.000, 0.000, 23:56:47.698, 1547020607698
163, -181.35, -186.03, -148.79, -211.72, 0.000, 0.000, 0.000, 23:56:47.713, 1547020607713
164, -178.56, -183.69, -146.83, -208.34, 0.000, 0.000, 0.000, 23:56:47.713, 1547020607713
165, -170.54, -177.18, -139.89, -199.93, 0.000, 0.000, 0.000, 23:56:47.728, 1547020607728
166, -172.74, -177.39, -134.57, -193.06, 0.000, 0.000, 0.000, 23:56:47.728, 1547020607728
167, -175.72, -175.73, -145.93, -191.37, 0.000, 0.000, 0.000, 23:56:47.729, 1547020607729
168, -173.68, -182.17, -162.44, -206.88, 0.000, 0.000, 0.000, 23:56:47.729, 1547020607729
169, -179.07, -187.07, -148.94, -205.62, 0.000, 0.000, 0.000, 23:56:47.743, 1547020607743
170, -175.46, -182.20, -139.85, -199.38, 0.000, 0.000, 0.000, 23:56:47.743, 1547020607743
171, -173.28, -182.53, -149.16, -197.64, 0.000, 0.000, 0.000, 23:56:47.758, 1547020607758
172, -182.04, -185.49, -158.22, -214.88, 0.000, 0.000, 0.000, 23:56:47.758, 1547020607758
173, -177.71, -184.23, -153.55, -213.08, 0.000, 0.000, 0.000, 23:56:47.758, 1547020607758
174, -180.63, -185.22, -151.23, -209.64, 0.000, 0.000, 0.000, 23:56:47.758, 1547020607758
175, -183.16, -188.86, -156.15, -214.84, 0.000, 0.000, 0.000, 23:56:47.773, 1547020607773
176, -184.77, -190.53, -161.73, -219.45, 0.000, 0.000, 0.000, 23:56:47.773, 1547020607773
177, -189.41, -193.19, -152.20, -214.11, 0.000, 0.000, 0.000, 23:56:47.788, 1547020607788
178, -184.52, -192.13, -157.35, -217.16, 0.000, 0.000, 0.000, 23:56:47.788, 1547020607788
179, -188.36, -191.36, -152.06, -212.16, 0.000, 0.000, 0.000, 23:56:47.788, 1547020607788
180, -170.09, -182.80, -135.89, -198.70, 0.000, 0.000, 0.000, 23:56:47.788, 1547020607788
181, -180.13, -187.35, -126.58, -205.11, 0.000, 0.000, 0.000, 23:56:47.803, 1547020607803
182, -182.72, -192.84, -165.76, -217.88, 0.000, 0.000, 0.000, 23:56:47.803, 1547020607803
183, -186.00, -194.09, -183.46, -222.41, 0.000, 0.000, 0.000, 23:56:47.818, 1547020607818
184, -186.56, -189.99, -173.92, -221.06, 0.000, 0.000, 0.000, 23:56:47.818, 1547020607818
185, -181.20, -186.73, -162.49, -219.49, 0.000, 0.000, 0.000, 23:56:47.818, 1547020607818
186, -177.27, -190.59, -155.23, -220.42, 0.000, 0.000, 0.000, 23:56:47.818, 1547020607818
187, -185.36, -192.95, -155.82, -223.33, 0.000, 0.000, 0.000, 23:56:47.833, 1547020607833
188, -187.88, -191.40, -157.81, -222.33, 0.000, 0.000, 0.000, 23:56:47.833, 1547020607833
189, -183.98, -192.79, -168.36, -228.04, 0.000, 0.000, 0.000, 23:56:47.848, 1547020607848
190, -180.95, -192.38, -153.96, -212.01, 0.000, 0.000, 0.000, 23:56:47.848, 1547020607848
191, -169.70, -182.03, -150.79, -207.27, 0.000, 0.000, 0.000, 23:56:47.848, 1547020607848
192, -178.56, -184.57, -167.34, -217.05, 0.000, 0.000, 0.000, 23:56:47.848, 1547020607848
193, -177.14, -183.68, -160.80, -208.52, 0.000, 0.000, 0.000, 23:56:47.863, 1547020607863
194, -168.04, -184.29, -153.19, -211.43, 0.000, 0.000, 0.000, 23:56:47.863, 1547020607863
195, -165.74, -178.15, -145.26, -207.23, 0.000, 0.000, 0.000, 23:56:47.878, 1547020607878
196, -173.53, -181.17, -152.33, -212.98, 0.000, 0.000, 0.000, 23:56:47.878, 1547020607878
197, -169.71, -183.81, -150.22, -207.39, 0.000, 0.000, 0.000, 23:56:47.878, 1547020607878
198, -175.70, -187.73, -144.11, -207.15, 0.000, 0.000, 0.000, 23:56:47.878, 1547020607878
199, -175.52, -186.79, -147.39, -202.33, 0.000, 0.000, 0.000, 23:56:47.894, 1547020607894
200, -165.35, -181.97, -141.73, -199.66, 0.000, 0.000, 0.000, 23:56:47.894, 1547020607894
0, -173.36, -185.95, -137.00, -199.51, 0.000, 0.000, 0.000, 23:56:47.900, 1547020607900
1, -168.95, -184.77, -120.39, -187.15, 0.000, 0.000, 0.000, 23:56:47.908, 1547020607908
2, -166.46, -181.94, -113.37, -183.49, 0.000, 0.000, 0.000, 23:56:47.908, 1547020607908
3, -174.96, -185.43, -136.84, -208.10, 0.000, 0.000, 0.000, 23:56:47.923, 1547020607923
4, -176.17, -183.91, -119.76, -190.44, 0.000, 0.000, 0.000, 23:56:47.923, 1547020607923
5, -165.67, -181.39, -115.50, -185.52, 0.000, 0.000, 0.000, 23:56:47.923, 1547020607923
6, -172.09, -188.52, -117.52, -194.44, 0.000, 0.000, 0.000, 23:56:47.923, 1547020607923
7, -170.66, -185.97, -121.59, -182.19, 0.000, 0.000, 0.000, 23:56:47.938, 1547020607938
8, -166.84, -181.23, -123.45, -179.17, 0.000, 0.000, 0.000, 23:56:47.938, 1547020607938
9, -168.92, -179.77, -124.37, -185.58, 0.000, 0.000, 0.000, 23:56:47.953, 1547020607953
10, -169.17, -178.74, -129.00, -196.17, 0.000, 0.000, 0.000, 23:56:47.953, 1547020607953
11, -166.36, -172.20, -137.51, -186.07, 0.000, 0.000, 0.000, 23:56:47.953, 1547020607953
12, -179.56, -183.97, -139.82, -193.62, 0.000, 0.000, 0.000, 23:56:47.953, 1547020607953
13, -171.24, -177.21, -127.67, -181.42, 0.000, 0.000, 0.000, 23:56:47.968, 1547020607968
14, -179.41, -183.42, -152.78, -190.75, 0.000, 0.000, 0.000, 23:56:47.968, 1547020607968
15, -175.43, -181.68, -143.69, -182.41, 0.000, 0.000, 0.000, 23:56:47.983, 1547020607983
16, -165.00, -178.23, -131.89, -179.12, 0.000, 0.000, 0.000, 23:56:47.983, 1547020607983
17, -173.55, -184.10, -138.66, -183.56, 0.000, 0.000, 0.000, 23:56:47.983, 1547020607983
18, -175.35, -178.75, -126.89, -179.29, 0.000, 0.000, 0.000, 23:56:47.983, 1547020607983
19, -172.56, -175.18, -146.48, -182.58, 0.000, 0.000, 0.000, 23:56:47.998, 1547020607998
20, -183.80, -187.21, -159.78, -196.39, 0.000, 0.000, 0.000, 23:56:47.998, 1547020607998
21, -178.71, -189.18, -156.11, -202.78, 0.000, 0.000, 0.000, 23:56:48.013, 1547020608013
22, -175.26, -178.97, -149.09, -193.61, 0.000, 0.000, 0.000, 23:56:48.013, 1547020608013
23, -178.39, -182.04, -146.73, -198.13, 0.000, 0.000, 0.000, 23:56:48.013, 1547020608013
24, -180.91, -185.29, -147.22, -200.13, 0.000, 0.000, 0.000, 23:56:48.013, 1547020608013
25, -179.07, -184.07, -143.97, -196.46, 0.000, 0.000, 0.000, 23:56:48.028, 1547020608028
26, -171.66, -176.85, -131.01, -188.04, 0.000, 0.000, 0.000, 23:56:48.028, 1547020608028
27, -179.73, -182.22, -167.29, -207.99, 0.000, 0.000, 0.000, 23:56:48.042, 1547020608042
28, -183.02, -185.55, -154.50, -200.45, 0.000, 0.000, 0.000, 23:56:48.042, 1547020608042
29, -177.04, -183.38, -149.35, -199.94, 0.000, 0.000, 0.000, 23:56:48.043, 1547020608043
30, -183.17, -189.57, -150.13, -194.86, 0.000, 0.000, 0.000, 23:56:48.043, 1547020608043
31, -178.90, -185.47, -150.45, -194.75, 0.000, 0.000, 0.000, 23:56:48.059, 1547020608059
32, -181.45, -189.03, -146.69, -197.71, 0.000, 0.000, 0.000, 23:56:48.059, 1547020608059
33, -182.79, -189.92, -155.63, -203.09, 0.000, 0.000, 0.000, 23:56:48.073, 1547020608073
34, -185.12, -193.30, -156.85, -209.72, 0.000, 0.000, 0.000, 23:56:48.073, 1547020608073
35, -187.64, -194.68, -159.82, -213.27, 0.000, 0.000, 0.000, 23:56:48.073, 1547020608073
36, -196.53, -197.44, -166.26, -218.91, 0.000, 0.000, 0.000, 23:56:48.073, 1547020608073
37, -185.92, -192.26, -139.19, -202.64, 0.000, 0.000, 0.000, 23:56:48.088, 1547020608088
38, -187.69, -193.72, -136.33, -200.73, 0.000, 0.000, 0.000, 23:56:48.088, 1547020608088
39, -191.65, -194.52, -162.17, -209.91, 0.000, 0.000, 0.000, 23:56:48.102, 1547020608102
40, -196.64, -203.62, -162.27, -222.95, 0.000, 0.000, 0.000, 23:56:48.102, 1547020608102
41, -183.14, -194.39, -165.11, -221.50, 0.000, 0.000, 0.000, 23:56:48.103, 1547020608103
42, -186.49, -194.82, -161.13, -219.82, 0.000, 0.000, 0.000, 23:56:48.103, 1547020608103
43, -194.94, -199.44, -163.39, -213.53, 0.000, 0.000, 0.000, 23:56:48.118, 1547020608118
44, -175.99, -182.95, -147.22, -197.20, 0.000, 0.000, 0.000, 23:56:48.118, 1547020608118
45, -178.77, -190.50, -145.50, -205.51, 0.000, 0.000, 0.000, 23:56:48.133, 1547020608133
46, -192.23, -201.59, -157.00, -215.68, 0.000, 0.000, 0.000, 23:56:48.133, 1547020608133
47, -185.32, -195.34, -153.62, -211.25, 0.000, 0.000, 0.000, 23:56:48.133, 1547020608133
48, -183.90, -193.64, -145.58, -206.06, 0.000, 0.000, 0.000, 23:56:48.133, 1547020608133
49, -178.04, -190.80, -124.45, -196.58, 0.000, 0.000, 0.000, 23:56:48.148, 1547020608148
50, -176.81, -185.83, -142.89, -202.65, 0.000, 0.000, 0.000, 23:56:48.148, 1547020608148
51, -183.61, -188.99, -161.20, -211.74, 0.000, 0.000, 0.000, 23:56:48.163, 1547020608163
52, -185.97, -188.43, -151.30, -204.07, 0.000, 0.000, 0.000, 23:56:48.163, 1547020608163
53, -181.77, -186.51, -142.62, -200.21, 0.000, 0.000, 0.000, 23:56:48.163, 1547020608163
54, -177.54, -184.34, -140.86, -198.17, 0.000, 0.000, 0.000, 23:56:48.163, 1547020608163
55, -179.59, -185.24, -142.99, -197.67, 0.000, 0.000, 0.000, 23:56:48.178, 1547020608178
56, -181.76, -187.49, -150.66, -197.69, 0.000, 0.000, 0.000, 23:56:48.178, 1547020608178
57, -179.78, -185.15, -162.59, -217.57, 0.000, 0.000, 0.000, 23:56:48.193, 1547020608193
58, -176.59, -183.28, -152.26, -209.73, 0.000, 0.000, 0.000, 23:56:48.193, 1547020608193
59, -182.36, -185.04, -143.61, -209.18, 0.000, 0.000, 0.000, 23:56:48.194, 1547020608194
60, -178.05, -179.65, -139.85, -204.59, 0.000, 0.000, 0.000, 23:56:48.194, 1547020608194
61, -178.05, -183.81, -156.38, -207.73, 0.000, 0.000, 0.000, 23:56:48.208, 1547020608208
62, -184.29, -185.75, -158.73, -205.17, 0.000, 0.000, 0.000, 23:56:48.208, 1547020608208
63, -192.20, -202.44, -173.18, -215.86, 0.000, 0.000, 0.000, 23:56:48.223, 1547020608223
64, -181.97, -186.21, -145.32, -204.65, 0.000, 0.000, 0.000, 23:56:48.223, 1547020608223
65, -183.44, -186.88, -147.67, -202.98, 0.000, 0.000, 0.000, 23:56:48.223, 1547020608223
66, -191.14, -201.88, -142.03, -194.29, 0.000, 0.000, 0.000, 23:56:48.223, 1547020608223
67, -185.63, -196.07, -141.73, -198.61, 0.000, 0.000, 0.000, 23:56:48.238, 1547020608238
68, -185.11, -185.14, -150.65, -205.03, 0.000, 0.000, 0.000, 23:56:48.238, 1547020608238
69, -182.64, -190.62, -138.86, -205.81, 0.000, 0.000, 0.000, 23:56:48.253, 1547020608253
70, -192.99, -198.78, -154.01, -216.78, 0.000, 0.000, 0.000, 23:56:48.253, 1547020608253
71, -193.12, -203.92, -164.63, -212.46, 0.000, 0.000, 0.000, 23:56:48.253, 1547020608253
72, -206.13, -203.78, -180.73, -227.32, 0.000, 0.000, 0.000, 23:56:48.253, 1547020608253
73, -202.86, -215.49, -155.18, -220.01, 0.000, 0.000, 0.000, 23:56:48.268, 1547020608268
74, -214.96, -220.11, -159.15, -219.49, 0.000, 0.000, 0.000, 23:56:48.268, 1547020608268
75, -211.55, -216.17, -169.33, -218.41, 0.000, 0.000, 0.000, 23:56:48.283, 1547020608283
76, -208.19, -215.21, -182.73, -226.07, 0.000, 0.000, 0.000, 23:56:48.283, 1547020608283
77, -213.19, -218.20, -176.10, -224.71, 0.000, 0.000, 0.000, 23:56:48.290, 1547020608290
78, -202.02, -205.09, -160.80, -209.02, 0.000, 0.000, 0.000, 23:56:48.290, 1547020608290
79, -202.23, -205.32, -160.55, -211.40, 0.000, 0.000, 0.000, 23:56:48.297, 1547020608297
80, -205.08, -203.82, -155.41, -204.70, 0.000, 0.000, 0.000, 23:56:48.297, 1547020608297
81, -202.49, -205.95, -149.38, -207.27, 0.000, 0.000, 0.000, 23:56:48.312, 1547020608312
82, -193.30, -199.38, -149.45, -205.42, 0.000, 0.000, 0.000, 23:56:48.312, 1547020608312
83, -194.15, -195.39, -146.27, -207.79, 0.000, 0.000, 0.000, 23:56:48.313, 1547020608313
84, -197.39, -199.51, -147.19, -208.65, 0.000, 0.000, 0.000, 23:56:48.313, 1547020608313
85, -190.12, -200.89, -139.18, -209.20, 0.000, 0.000, 0.000, 23:56:48.328, 1547020608328
86, -192.51, -204.26, -183.31, -225.70, 0.000, 0.000, 0.000, 23:56:48.328, 1547020608328
87, -198.51, -196.28, -174.14, -222.02, 0.000, 0.000, 0.000, 23:56:48.342, 1547020608342
88, -201.96, -202.30, -158.55, -214.51, 0.000, 0.000, 0.000, 23:56:48.342, 1547020608342
89, -186.20, -190.73, -152.15, -206.50, 0.000, 0.000, 0.000, 23:56:48.343, 1547020608343
90, -194.84, -196.86, -162.55, -209.39, 0.000, 0.000, 0.000, 23:56:48.343, 1547020608343
91, -199.41, -200.22, -162.42, -204.61, 0.000, 0.000, 0.000, 23:56:48.358, 1547020608358
92, -195.45, -201.28, -154.26, -199.39, 0.000, 0.000, 0.000, 23:56:48.358, 1547020608358
93, -186.66, -196.73, -137.90, -193.34, 0.000, 0.000, 0.000, 23:56:48.373, 1547020608373
94, -188.32, -199.30, -144.40, -211.68, 0.000, 0.000, 0.000, 23:56:48.373, 1547020608373
95, -188.61, -199.20, -168.79, -217.60, 0.000, 0.000, 0.000, 23:56:48.373, 1547020608373
96, -189.16, -199.25, -159.79, -209.38, 0.000, 0.000, 0.000, 23:56:48.373, 1547020608373
97, -189.70, -199.75, -150.98, -207.06, 0.000, 0.000, 0.000, 23:56:48.388, 1547020608388
98, -189.97, -195.23, -150.45, -210.83, 0.000, 0.000, 0.000, 23:56:48.388, 1547020608388
99, -187.16, -193.56, -148.97, -212.44, 0.000, 0.000, 0.000, 23:56:48.402, 1547020608402
100, -189.25, -197.87, -144.18, -207.51, 0.000, 0.000, 0.000, 23:56:48.402, 1547020608402
101, -190.48, -195.89, -146.09, -206.57, 0.000, 0.000, 0.000, 23:56:48.403, 1547020608403
102, -193.72, -195.77, -153.35, -209.82, 0.000, 0.000, 0.000, 23:56:48.403, 1547020608403
103, -189.32, -199.02, -167.17, -217.43, 0.000, 0.000, 0.000, 23:56:48.419, 1547020608419
104, -194.26, -199.87, -164.77, -217.59, 0.000, 0.000, 0.000, 23:56:48.419, 1547020608419
105, -186.00, -196.20, -155.96, -216.65, 0.000, 0.000, 0.000, 23:56:48.433, 1547020608433
106, -186.78, -196.14, -147.01, -208.78, 0.000, 0.000, 0.000, 23:56:48.433, 1547020608433
107, -195.18, -193.32, -147.71, -210.05, 0.000, 0.000, 0.000, 23:56:48.433, 1547020608433
108, -184.40, -197.93, -153.97, -206.64, 0.000, 0.000, 0.000, 23:56:48.433, 1547020608433
109, -183.51, -190.24, -149.61, -205.04, 0.000, 0.000, 0.000, 23:56:48.448, 1547020608448
110, -175.54, -187.28, -150.53, -202.25, 0.000, 0.000, 0.000, 23:56:48.448, 1547020608448
111, -185.28, -189.60, -151.25, -202.13, 0.000, 0.000, 0.000, 23:56:48.463, 1547020608463
112, -185.34, -193.95, -144.42, -204.57, 0.000, 0.000, 0.000, 23:56:48.463, 1547020608463
113, -182.56, -193.73, -141.26, -206.17, 0.000, 0.000, 0.000, 23:56:48.463, 1547020608463
114, -184.63, -190.35, -151.49, -203.13, 0.000, 0.000, 0.000, 23:56:48.463, 1547020608463
115, -184.94, -191.22, -155.94, -201.13, 0.000, 0.000, 0.000, 23:56:48.478, 1547020608478
116, -174.45, -187.81, -151.22, -203.51, 0.000, 0.000, 0.000, 23:56:48.478, 1547020608478
117, -185.06, -190.93, -145.00, -196.28, 0.000, 0.000, 0.000, 23:56:48.493, 1547020608493
118, -181.76, -182.37, -139.72, -194.73, 0.000, 0.000, 0.000, 23:56:48.493, 1547020608493
119, -184.98, -186.66, -157.34, -203.32, 0.000, 0.000, 0.000, 23:56:48.494, 1547020608494
120, -187.09, -197.45, -140.52, -200.04, 0.000, 0.000, 0.000, 23:56:48.494, 1547020608494
121, -194.02, -208.39, -142.44, -196.99, 0.000, 0.000, 0.000, 23:56:48.508, 1547020608508
122, -155.49, -171.54, -153.32, -201.93, 0.000, 0.000, 0.000, 23:56:48.508, 1547020608508
123, -171.24, -180.77, -151.30, -204.81, 0.000, 0.000, 0.000, 23:56:48.523, 1547020608523
124, -170.06, -176.68, -145.63, -199.45, 0.000, 0.000, 0.000, 23:56:48.523, 1547020608523
125, -171.12, -182.88, -144.14, -201.05, 0.000, 0.000, 0.000, 23:56:48.523, 1547020608523
126, -166.02, -179.06, -145.92, -203.43, 0.000, 0.000, 0.000, 23:56:48.523, 1547020608523
127, -172.66, -181.80, -158.97, -207.62, 0.000, 0.000, 0.000, 23:56:48.538, 1547020608538
128, -179.88, -186.10, -152.47, -205.29, 0.000, 0.000, 0.000, 23:56:48.538, 1547020608538
129, -175.26, -187.05, -140.86, -202.56, 0.000, 0.000, 0.000, 23:56:48.553, 1547020608553
130, -173.22, -189.62, -153.77, -210.67, 0.000, 0.000, 0.000, 23:56:48.553, 1547020608553
131, -184.79, -189.72, -156.25, -211.09, 0.000, 0.000, 0.000, 23:56:48.560, 1547020608560
132, -185.23, -190.95, -152.60, -211.52, 0.000, 0.000, 0.000, 23:56:48.560, 1547020608560
133, -178.07, -191.98, -153.67, -210.53, 0.000, 0.000, 0.000, 23:56:48.568, 1547020608568
134, -175.67, -188.26, -153.76, -208.40, 0.000, 0.000, 0.000, 23:56:48.568, 1547020608568
135, -185.64, -189.34, -143.51, -204.62, 0.000, 0.000, 0.000, 23:56:48.583, 1547020608583
136, -183.92, -189.31, -152.88, -204.39, 0.000, 0.000, 0.000, 23:56:48.583, 1547020608583
137, -176.58, -183.88, -154.85, -203.12, 0.000, 0.000, 0.000, 23:56:48.583, 1547020608583
138, -180.38, -185.11, -154.99, -219.33, 0.000, 0.000, 0.000, 23:56:48.583, 1547020608583
139, -183.93, -183.93, -152.56, -210.92, 0.000, 0.000, 0.000, 23:56:48.598, 1547020608598
140, -180.51, -189.45, -155.01, -210.29, 0.000, 0.000, 0.000, 23:56:48.598, 1547020608598
141, -175.45, -185.30, -134.57, -202.06, 0.000, 0.000, 0.000, 23:56:48.613, 1547020608613
142, -182.01, -190.48, -138.86, -201.71, 0.000, 0.000, 0.000, 23:56:48.613, 1547020608613
143, -185.53, -188.56, -165.63, -210.60, 0.000, 0.000, 0.000, 23:56:48.613, 1547020608613
144, -185.56, -189.21, -163.91, -210.56, 0.000, 0.000, 0.000, 23:56:48.613, 1547020608613
145, -188.96, -202.21, -164.21, -215.27, 0.000, 0.000, 0.000, 23:56:48.628, 1547020608628
146, -183.08, -196.60, -154.52, -211.50, 0.000, 0.000, 0.000, 23:56:48.628, 1547020608628
147, -180.59, -191.25, -152.56, -209.33, 0.000, 0.000, 0.000, 23:56:48.643, 1547020608643
148, -181.90, -186.45, -159.94, -213.32, 0.000, 0.000, 0.000, 23:56:48.643, 1547020608643
149, -179.13, -187.83, -146.45, -208.61, 0.000, 0.000, 0.000, 23:56:48.643, 1547020608643
150, -175.96, -186.91, -144.92, -204.09, 0.000, 0.000, 0.000, 23:56:48.643, 1547020608643
151, -181.98, -192.91, -158.28, -220.91, 0.000, 0.000, 0.000, 23:56:48.658, 1547020608658
152, -190.40, -195.09, -157.95, -218.04, 0.000, 0.000, 0.000, 23:56:48.658, 1547020608658
153, -185.94, -192.76, -148.44, -213.29, 0.000, 0.000, 0.000, 23:56:48.673, 1547020608673
154, -180.47, -190.08, -156.25, -211.12, 0.000, 0.000, 0.000, 23:56:48.673, 1547020608673
155, -178.83, -185.42, -154.04, -219.07, 0.000, 0.000, 0.000, 23:56:48.673, 1547020608673
156, -175.22, -181.41, -145.01, -205.84, 0.000, 0.000, 0.000, 23:56:48.673, 1547020608673
157, -172.06, -178.27, -139.72, -202.44, 0.000, 0.000, 0.000, 23:56:48.688, 1547020608688
158, -176.81, -180.60, -156.93, -216.16, 0.000, 0.000, 0.000, 23:56:48.688, 1547020608688
159, -173.22, -180.90, -152.08, -213.04, 0.000, 0.000, 0.000, 23:56:48.702, 1547020608702
160, -180.10, -187.15, -161.18, -219.35, 0.000, 0.000, 0.000, 23:56:48.702, 1547020608702
161, -171.29, -185.38, -155.05, -212.75, 0.000, 0.000, 0.000, 23:56:48.703, 1547020608703
162, -179.37, -186.07, -160.36, -218.54, 0.000, 0.000, 0.000, 23:56:48.703, 1547020608703
163, -183.58, -188.01, -171.11, -218.81, 0.000, 0.000, 0.000, 23:56:48.718, 1547020608718
164, -180.43, -183.36, -147.86, -207.59, 0.000, 0.000, 0.000, 23:56:48.718, 1547020608718
165, -181.45, -186.86, -150.12, -212.21, 0.000, 0.000, 0.000, 23:56:48.732, 1547020608732
166, -178.28, -188.62, -149.82, -211.83, 0.000, 0.000, 0.000, 23:56:48.732, 1547020608732
167, -175.70, -182.29, -148.16, -204.14, 0.000, 0.000, 0.000, 23:56:48.733, 1547020608733
168, -176.29, -176.97, -143.20, -201.22, 0.000, 0.000, 0.000, 23:56:48.733, 1547020608733
169, -171.55, -177.50, -133.73, -199.81, 0.000, 0.000, 0.000, 23:56:48.748, 1547020608748
170, -165.71, -173.31, -150.64, -210.23, 0.000, 0.000, 0.000, 23:56:48.748, 1547020608748
171, -162.35, -169.48, -157.86, -210.11, 0.000, 0.000, 0.000, 23:56:48.763, 1547020608763
172, -164.32, -167.57, -148.05, -204.41, 0.000, 0.000, 0.000, 23:56:48.763, 1547020608763
173, -148.16, -159.32, -133.84, -193.46, 0.000, 0.000, 0.000, 23:56:48.763, 1547020608763
174, -149.91, -158.10, -140.37, -203.04, 0.000, 0.000, 0.000, 23:56:48.763, 1547020608763
175, -143.51, -150.86, -134.92, -199.95, 0.000, 0.000, 0.000, 23:56:48.778, 1547020608778
176, -148.23, -154.10, -138.86, -201.57, 0.000, 0.000, 0.000, 23:56:48.778, 1547020608778
177, -148.82, -161.02, -148.25, -205.82, 0.000, 0.000, 0.000, 23:56:48.793, 1547020608793
178, -146.03, -155.68, -145.49, -195.87, 0.000, 0.000, 0.000, 23:56:48.793, 1547020608793
179, -147.38, -158.78, -143.16, -206.45, 0.000, 0.000, 0.000, 23:56:48.793, 1547020608793
180, -160.10, -168.04, -158.97, -208.26, 0.000, 0.000, 0.000, 23:56:48.793, 1547020608793
181, -154.15, -166.90, -137.64, -201.34, 0.000, 0.000, 0.000, 23:56:48.808, 1547020608808
182, -158.62, -169.59, -149.03, -204.62, 0.000, 0.000, 0.000, 23:56:48.808, 1547020608808
183, -161.38, -168.51, -140.27, -191.02, 0.000, 0.000, 0.000, 23:56:48.823, 1547020608823
184, -165.30, -175.99, -148.98, -200.83, 0.000, 0.000, 0.000, 23:56:48.823, 1547020608823
185, -164.16, -174.84, -152.08, -203.56, 0.000, 0.000, 0.000, 23:56:48.823, 1547020608823
186, -170.14, -176.96, -149.78, -205.03, 0.000, 0.000, 0.000, 23:56:48.823, 1547020608823
187, -160.95, -169.85, -139.53, -193.28, 0.000, 0.000, 0.000, 23:56:48.838, 1547020608838
188, -167.64, -174.79, -135.00, -209.94, 0.000, 0.000, 0.000, 23:56:48.838, 1547020608838
189, -172.15, -175.71, -157.02, -210.28, 0.000, 0.000, 0.000, 23:56:48.854, 1547020608854
190, -173.35, -175.60, -164.12, -215.56, 0.000, 0.000, 0.000, 23:56:48.854, 1547020608854
191, -172.22, -182.95, -172.08, -222.93, 0.000, 0.000, 0.000, 23:56:48.860, 1547020608860
192, -181.69, -186.51, -156.57, -213.75, 0.000, 0.000, 0.000, 23:56:48.860, 1547020608860
193, -179.36, -186.06, -155.22, -207.95, 0.000, 0.000, 0.000, 23:56:48.868, 1547020608868
194, -184.17, -189.41, -149.44, -211.23, 0.000, 0.000, 0.000, 23:56:48.868, 1547020608868
195, -185.66, -194.19, -147.60, -211.47, 0.000, 0.000, 0.000, 23:56:48.883, 1547020608883
196, -188.39, -192.85, -148.13, -205.45, 0.000, 0.000, 0.000, 23:56:48.883, 1547020608883
197, -187.59, -195.86, -148.58, -201.47, 0.000, 0.000, 0.000, 23:56:48.883, 1547020608883
198, -192.38, -197.15, -148.54, -199.11, 0.000, 0.000, 0.000, 23:56:48.883, 1547020608883
199, -195.13, -194.23, -147.21, -198.51, 0.000, 0.000, 0.000, 23:56:48.897, 1547020608897
200, -196.48, -205.57, -152.07, -202.12, 0.000, 0.000, 0.000, 23:56:48.897, 1547020608897
0, -201.56, -208.58, -157.58, -205.45, 0.000, 0.000, 0.000, 23:56:48.898, 1547020608898
1, -195.53, -205.58, -150.97, -209.05, 0.000, 0.000, 0.000, 23:56:48.913, 1547020608913
2, -189.64, -200.19, -138.62, -206.58, 0.000, 0.000, 0.000, 23:56:48.913, 1547020608913
3, -203.93, -203.66, -157.42, -213.49, 0.000, 0.000, 0.000, 23:56:48.928, 1547020608928
4, -195.03, -206.36, -171.20, -217.76, 0.000, 0.000, 0.000, 23:56:48.928, 1547020608928
5, -201.06, -207.11, -159.45, -214.84, 0.000, 0.000, 0.000, 23:56:48.928, 1547020608928
6, -197.61, -196.87, -148.83, -205.38, 0.000, 0.000, 0.000, 23:56:48.928, 1547020608928
7, -192.94, -202.96, -155.98, -209.41, 0.000, 0.000, 0.000, 23:56:48.943, 1547020608943
8, -195.70, -204.25, -151.58, -213.24, 0.000, 0.000, 0.000, 23:56:48.943, 1547020608943
9, -195.14, -204.09, -156.60, -208.10, 0.000, 0.000, 0.000, 23:56:48.958, 1547020608958
10, -194.54, -202.60, -160.04, -204.20, 0.000, 0.000, 0.000, 23:56:48.958, 1547020608958
11, -194.11, -198.20, -148.91, -198.08, 0.000, 0.000, 0.000, 23:56:48.958, 1547020608958
12, -197.40, -205.49, -146.85, -204.81, 0.000, 0.000, 0.000, 23:56:48.958, 1547020608958
13, -194.98, -205.93, -150.14, -201.79, 0.000, 0.000, 0.000, 23:56:48.973, 1547020608973
14, -198.35, -202.73, -157.67, -212.54, 0.000, 0.000, 0.000, 23:56:48.973, 1547020608973
15, -195.89, -200.79, -145.70, -201.76, 0.000, 0.000, 0.000, 23:56:48.988, 1547020608988
16, -185.59, -201.67, -137.05, -201.62, 0.000, 0.000, 0.000, 23:56:48.988, 1547020608988
17, -198.51, -204.39, -140.80, -200.15, 0.000, 0.000, 0.000, 23:56:48.989, 1547020608989
18, -196.76, -200.24, -148.14, -200.66, 0.000, 0.000, 0.000, 23:56:48.989, 1547020608989
19, -199.72, -205.60, -164.92, -217.09, 0.000, 0.000, 0.000, 23:56:49.003, 1547020609003
20, -194.98, -204.66, -153.01, -210.65, 0.000, 0.000, 0.000, 23:56:49.003, 1547020609003
21, -202.38, -205.28, -156.75, -216.76, 0.000, 0.000, 0.000, 23:56:49.018, 1547020609018
22, -206.84, -210.06, -160.21, -218.74, 0.000, 0.000, 0.000, 23:56:49.018, 1547020609018
23, -202.58, -207.06, -156.72, -219.47, 0.000, 0.000, 0.000, 23:56:49.018, 1547020609018
24, -194.78, -201.36, -166.09, -217.93, 0.000, 0.000, 0.000, 23:56:49.018, 1547020609018
25, -192.66, -201.01, -150.72, -213.62, 0.000, 0.000, 0.000, 23:56:49.033, 1547020609033
26, -191.15, -200.26, -149.93, -203.94, 0.000, 0.000, 0.000, 23:56:49.033, 1547020609033
27, -195.84, -204.49, -152.46, -206.47, 0.000, 0.000, 0.000, 23:56:49.047, 1547020609047
28, -196.52, -202.80, -153.92, -206.91, 0.000, 0.000, 0.000, 23:56:49.047, 1547020609047
29, -191.16, -198.45, -144.13, -203.33, 0.000, 0.000, 0.000, 23:56:49.048, 1547020609048
30, -189.46, -199.67, -140.49, -200.74, 0.000, 0.000, 0.000, 23:56:49.048, 1547020609048
31, -186.78, -197.88, -148.86, -201.64, 0.000, 0.000, 0.000, 23:56:49.063, 1547020609063
32, -197.34, -202.05, -163.04, -217.51, 0.000, 0.000, 0.000, 23:56:49.063, 1547020609063
33, -188.52, -195.20, -157.51, -213.07, 0.000, 0.000, 0.000, 23:56:49.078, 1547020609078
34, -191.32, -196.18, -158.46, -210.35, 0.000, 0.000, 0.000, 23:56:49.078, 1547020609078
35, -194.28, -195.14, -159.66, -220.18, 0.000, 0.000, 0.000, 23:56:49.078, 1547020609078
36, -194.90, -201.92, -166.61, -226.01, 0.000, 0.000, 0.000, 23:56:49.078, 1547020609078
37, -187.37, -195.80, -162.26, -220.93, 0.000, 0.000, 0.000, 23:56:49.093, 1547020609093
38, -188.18, -194.56, -159.63, -215.70, 0.000, 0.000, 0.000, 23:56:49.093, 1547020609093
39, -188.02, -196.78, -160.54, -212.71, 0.000, 0.000, 0.000, 23:56:49.108, 1547020609108
40, -182.14, -193.87, -144.69, -202.54, 0.000, 0.000, 0.000, 23:56:49.108, 1547020609108
41, -181.79, -193.03, -152.46, -202.44, 0.000, 0.000, 0.000, 23:56:49.108, 1547020609108
42, -191.98, -191.20, -143.32, -199.22, 0.000, 0.000, 0.000, 23:56:49.108, 1547020609108
43, -204.32, -203.90, -157.52, -211.60, 0.000, 0.000, 0.000, 23:56:49.123, 1547020609123
44, -184.14, -196.73, -150.99, -206.51, 0.000, 0.000, 0.000, 23:56:49.123, 1547020609123
45, -179.19, -189.35, -145.59, -203.31, 0.000, 0.000, 0.000, 23:56:49.137, 1547020609137
46, -184.46, -191.02, -142.50, -197.28, 0.000, 0.000, 0.000, 23:56:49.137, 1547020609137
47, -188.72, -194.85, -147.26, -203.54, 0.000, 0.000, 0.000, 23:56:49.138, 1547020609138
48, -182.81, -193.02, -148.52, -198.74, 0.000, 0.000, 0.000, 23:56:49.138, 1547020609138
49, -184.20, -194.94, -145.63, -207.01, 0.000, 0.000, 0.000, 23:56:49.153, 1547020609153
50, -189.69, -190.66, -148.13, -196.87, 0.000, 0.000, 0.000, 23:56:49.153, 1547020609153
51, -184.78, -191.67, -148.33, -205.28, 0.000, 0.000, 0.000, 23:56:49.168, 1547020609168
52, -188.00, -200.11, -152.63, -201.30, 0.000, 0.000, 0.000, 23:56:49.168, 1547020609168
53, -177.04, -190.26, -145.94, -201.33, 0.000, 0.000, 0.000, 23:56:49.168, 1547020609168
54, -180.24, -185.53, -142.17, -201.68, 0.000, 0.000, 0.000, 23:56:49.168, 1547020609168
55, -182.20, -188.39, -160.97, -207.31, 0.000, 0.000, 0.000, 23:56:49.183, 1547020609183
56, -181.15, -192.19, -144.39, -204.60, 0.000, 0.000, 0.000, 23:56:49.183, 1547020609183
57, -180.32, -189.26, -153.47, -208.24, 0.000, 0.000, 0.000, 23:56:49.198, 1547020609198
58, -176.67, -187.89, -150.36, -201.93, 0.000, 0.000, 0.000, 23:56:49.198, 1547020609198
59, -178.44, -182.77, -143.24, -199.99, 0.000, 0.000, 0.000, 23:56:49.198, 1547020609198
60, -178.10, -182.10, -139.66, -196.81, 0.000, 0.000, 0.000, 23:56:49.198, 1547020609198
61, -176.84, -181.61, -130.48, -193.36, 0.000, 0.000, 0.000, 23:56:49.213, 1547020609213
62, -182.96, -189.69, -148.93, -206.09, 0.000, 0.000, 0.000, 23:56:49.213, 1547020609213
63, -183.06, -188.07, -155.04, -208.14, 0.000, 0.000, 0.000, 23:56:49.227, 1547020609227
64, -179.99, -186.56, -149.43, -205.86, 0.000, 0.000, 0.000, 23:56:49.227, 1547020609227
65, -180.53, -189.20, -154.32, -210.69, 0.000, 0.000, 0.000, 23:56:49.228, 1547020609228
66, -181.03, -187.98, -155.16, -205.10, 0.000, 0.000, 0.000, 23:56:49.228, 1547020609228
67, -184.47, -186.87, -153.03, -210.53, 0.000, 0.000, 0.000, 23:56:49.243, 1547020609243
68, -176.35, -187.60, -145.88, -201.72, 0.000, 0.000, 0.000, 23:56:49.243, 1547020609243
69, -172.10, -180.87, -139.03, -195.94, 0.000, 0.000, 0.000, 23:56:49.258, 1547020609258
70, -173.16, -176.48, -154.57, -215.90, 0.000, 0.000, 0.000, 23:56:49.258, 1547020609258
71, -166.39, -172.98, -158.58, -212.22, 0.000, 0.000, 0.000, 23:56:49.258, 1547020609258
72, -156.02, -162.08, -152.18, -212.88, 0.000, 0.000, 0.000, 23:56:49.258, 1547020609258
73, -140.44, -148.62, -135.49, -194.13, 0.000, 0.000, 0.000, 23:56:49.273, 1547020609273
74, -137.62, -140.25, -155.41, -204.71, 0.000, 0.000, 0.000, 23:56:49.273, 1547020609273
75, -136.46, -136.72, -161.74, -216.05, 0.000, 0.000, 0.000, 23:56:49.288, 1547020609288
76, -110.18, -118.14, -149.03, -199.66, 0.000, 0.000, 0.000, 23:56:49.288, 1547020609288
77, -99.18, -105.94, -132.38, -196.37, 0.000, 0.000, 0.000, 23:56:49.288, 1547020609288
78, -92.03, -98.43, -135.72, -193.48, 0.000, 0.000, 0.000, 23:56:49.288, 1547020609288
79, -95.37, -97.20, -148.44, -198.71, 0.000, 0.000, 0.000, 23:56:49.303, 1547020609303
80, -78.84, -87.27, -145.21, -199.67, 0.000, 0.000, 0.000, 23:56:49.303, 1547020609303
81, -72.25, -82.59, -112.57, -185.33, 0.000, 0.000, 0.000, 23:56:49.318, 1547020609318
82, -84.57, -88.19, -133.75, -201.80, 0.000, 0.000, 0.000, 23:56:49.318, 1547020609318
83, -94.64, -95.98, -138.22, -201.30, 0.000, 0.000, 0.000, 23:56:49.319, 1547020609319
84, -106.74, -109.42, -139.04, -202.29, 0.000, 0.000, 0.000, 23:56:49.319, 1547020609319
85, -122.29, -131.32, -141.34, -206.43, 0.000, 0.000, 0.000, 23:56:49.333, 1547020609333
86, -129.98, -136.48, -156.72, -210.32, 0.000, 0.000, 0.000, 23:56:49.333, 1547020609333
87, -141.26, -143.96, -148.38, -207.47, 0.000, 0.000, 0.000, 23:56:49.348, 1547020609348
88, -163.25, -163.46, -153.97, -212.45, 0.000, 0.000, 0.000, 23:56:49.348, 1547020609348
89, -158.83, -165.98, -148.75, -204.05, 0.000, 0.000, 0.000, 23:56:49.348, 1547020609348
90, -190.18, -195.50, -157.86, -206.26, 0.000, 0.000, 0.000, 23:56:49.348, 1547020609348
91, -189.82, -194.47, -153.47, -206.13, 0.000, 0.000, 0.000, 23:56:49.363, 1547020609363
92, -202.41, -212.43, -152.82, -207.11, 0.000, 0.000, 0.000, 23:56:49.363, 1547020609363
93, -196.18, -207.21, -144.18, -197.82, 0.000, 0.000, 0.000, 23:56:49.378, 1547020609378
94, -215.75, -221.63, -151.21, -195.49, 0.000, 0.000, 0.000, 23:56:49.378, 1547020609378
95, -208.25, -217.74, -146.98, -192.43, 0.000, 0.000, 0.000, 23:56:49.378, 1547020609378
96, -208.48, -217.09, -138.48, -192.56, 0.000, 0.000, 0.000, 23:56:49.378, 1547020609378
97, -206.69, -217.79, -141.00, -196.15, 0.000, 0.000, 0.000, 23:56:49.393, 1547020609393
98, -211.42, -221.59, -150.21, -196.76, 0.000, 0.000, 0.000, 23:56:49.393, 1547020609393
99, -221.20, -223.96, -154.00, -217.29, 0.000, 0.000, 0.000, 23:56:49.408, 1547020609408
100, -210.44, -219.28, -138.53, -206.76, 0.000, 0.000, 0.000, 23:56:49.408, 1547020609408
101, -210.34, -217.67, -131.84, -203.25, 0.000, 0.000, 0.000, 23:56:49.408, 1547020609408
102, -210.36, -220.77, -147.43, -210.84, 0.000, 0.000, 0.000, 23:56:49.408, 1547020609408
103, -214.83, -216.89, -133.79, -202.13, 0.000, 0.000, 0.000, 23:56:49.423, 1547020609423
104, -218.79, -223.74, -156.80, -219.08, 0.000, 0.000, 0.000, 23:56:49.423, 1547020609423
105, -219.67, -222.94, -176.04, -219.82, 0.000, 0.000, 0.000, 23:56:49.438, 1547020609438
106, -216.95, -216.83, -169.27, -218.15, 0.000, 0.000, 0.000, 23:56:49.438, 1547020609438
107, -218.98, -221.03, -159.06, -206.06, 0.000, 0.000, 0.000, 23:56:49.438, 1547020609438
108, -208.38, -212.68, -148.07, -197.72, 0.000, 0.000, 0.000, 23:56:49.438, 1547020609438
109, -208.81, -210.09, -142.09, -195.19, 0.000, 0.000, 0.000, 23:56:49.453, 1547020609453
110, -209.34, -208.53, -146.98, -198.49, 0.000, 0.000, 0.000, 23:56:49.453, 1547020609453
111, -210.12, -208.90, -165.31, -204.38, 0.000, 0.000, 0.000, 23:56:49.468, 1547020609468
112, -202.03, -211.84, -152.44, -201.69, 0.000, 0.000, 0.000, 23:56:49.468, 1547020609468
113, -205.81, -209.43, -160.31, -210.45, 0.000, 0.000, 0.000, 23:56:49.468, 1547020609468
114, -206.94, -208.53, -150.78, -209.70, 0.000, 0.000, 0.000, 23:56:49.468, 1547020609468
115, -200.09, -203.88, -144.24, -206.65, 0.000, 0.000, 0.000, 23:56:49.483, 1547020609483
116, -202.30, -205.84, -152.35, -220.04, 0.000, 0.000, 0.000, 23:56:49.483, 1547020609483
117, -199.75, -207.69, -156.53, -213.83, 0.000, 0.000, 0.000, 23:56:49.498, 1547020609498
118, -197.43, -201.89, -144.33, -206.54, 0.000, 0.000, 0.000, 23:56:49.498, 1547020609498
119, -202.55, -212.69, -154.46, -218.20, 0.000, 0.000, 0.000, 23:56:49.498, 1547020609498
120, -188.28, -199.51, -150.28, -204.62, 0.000, 0.000, 0.000, 23:56:49.498, 1547020609498
121, -200.02, -206.19, -153.44, -205.20, 0.000, 0.000, 0.000, 23:56:49.513, 1547020609513
122, -198.51, -206.53, -160.07, -207.30, 0.000, 0.000, 0.000, 23:56:49.513, 1547020609513
123, -214.92, -212.84, -154.73, -202.67, 0.000, 0.000, 0.000, 23:56:49.528, 1547020609528
124, -199.58, -209.97, -145.52, -196.55, 0.000, 0.000, 0.000, 23:56:49.528, 1547020609528
125, -201.41, -207.48, -140.93, -194.62, 0.000, 0.000, 0.000, 23:56:49.542, 1547020609542
126, -195.94, -205.41, -144.91, -194.38, 0.000, 0.000, 0.000, 23:56:49.542, 1547020609542
127, -197.53, -206.37, -142.97, -195.07, 0.000, 0.000, 0.000, 23:56:49.543, 1547020609543
128, -191.38, -202.84, -123.43, -197.07, 0.000, 0.000, 0.000, 23:56:49.543, 1547020609543
129, -199.60, -205.32, -159.26, -211.45, 0.000, 0.000, 0.000, 23:56:49.558, 1547020609558
130, -199.42, -207.11, -161.91, -213.44, 0.000, 0.000, 0.000, 23:56:49.558, 1547020609558
131, -193.55, -201.71, -152.78, -203.02, 0.000, 0.000, 0.000, 23:56:49.558, 1547020609558
132, -190.74, -202.93, -147.28, -207.41, 0.000, 0.000, 0.000, 23:56:49.558, 1547020609558
133, -192.61, -199.73, -146.98, -202.71, 0.000, 0.000, 0.000, 23:56:49.573, 1547020609573
134, -187.12, -195.12, -143.39, -199.72, 0.000, 0.000, 0.000, 23:56:49.573, 1547020609573
135, -195.77, -207.49, -150.83, -211.21, 0.000, 0.000, 0.000, 23:56:49.588, 1547020609588
136, -190.40, -203.81, -152.51, -208.53, 0.000, 0.000, 0.000, 23:56:49.588, 1547020609588
137, -195.57, -204.09, -155.11, -210.65, 0.000, 0.000, 0.000, 23:56:49.588, 1547020609588
138, -198.05, -203.03, -166.59, -217.80, 0.000, 0.000, 0.000, 23:56:49.588, 1547020609588
139, -194.20, -200.54, -161.77, -212.03, 0.000, 0.000, 0.000, 23:56:49.603, 1547020609603
140, -187.73, -194.89, -146.70, -202.82, 0.000, 0.000, 0.000, 23:56:49.603, 1547020609603
141, -182.28, -190.12, -148.64, -208.69, 0.000, 0.000, 0.000, 23:56:49.618, 1547020609618
142, -196.00, -200.33, -171.56, -226.58, 0.000, 0.000, 0.000, 23:56:49.618, 1547020609618
143, -203.36, -200.76, -172.16, -225.83, 0.000, 0.000, 0.000, 23:56:49.619, 1547020609619
144, -185.82, -194.98, -142.45, -202.48, 0.000, 0.000, 0.000, 23:56:49.619, 1547020609619
145, -190.33, -198.01, -152.35, -215.21, 0.000, 0.000, 0.000, 23:56:49.633, 1547020609633
146, -188.06, -193.89, -153.74, -215.64, 0.000, 0.000, 0.000, 23:56:49.633, 1547020609633
147, -196.08, -192.27, -156.56, -208.53, 0.000, 0.000, 0.000, 23:56:49.647, 1547020609647
148, -190.35, -200.01, -149.73, -203.99, 0.000, 0.000, 0.000, 23:56:49.647, 1547020609647
149, -190.94, -195.12, -144.80, -210.07, 0.000, 0.000, 0.000, 23:56:49.648, 1547020609648
150, -195.42, -197.30, -146.57, -206.15, 0.000, 0.000, 0.000, 23:56:49.648, 1547020609648
151, -191.19, -194.50, -162.56, -217.26, 0.000, 0.000, 0.000, 23:56:49.669, 1547020609669
152, -192.92, -200.22, -162.66, -213.60, 0.000, 0.000, 0.000, 23:56:49.669, 1547020609669
153, -194.70, -197.37, -164.23, -214.12, 0.000, 0.000, 0.000, 23:56:49.678, 1547020609678
154, -191.42, -192.57, -154.38, -209.01, 0.000, 0.000, 0.000, 23:56:49.678, 1547020609678
155, -187.90, -195.92, -156.37, -206.49, 0.000, 0.000, 0.000, 23:56:49.678, 1547020609678
156, -186.02, -195.44, -150.23, -203.81, 0.000, 0.000, 0.000, 23:56:49.678, 1547020609678
157, -179.46, -193.01, -139.20, -199.91, 0.000, 0.000, 0.000, 23:56:49.693, 1547020609693
158, -181.54, -192.66, -148.25, -198.42, 0.000, 0.000, 0.000, 23:56:49.693, 1547020609693
159, -194.33, -195.11, -159.15, -204.02, 0.000, 0.000, 0.000, 23:56:49.708, 1547020609708
160, -188.27, -193.95, -144.31, -201.06, 0.000, 0.000, 0.000, 23:56:49.708, 1547020609708
161, -181.93, -190.50, -141.82, -195.93, 0.000, 0.000, 0.000, 23:56:49.708, 1547020609708
162, -187.27, -189.78, -148.82, -202.90, 0.000, 0.000, 0.000, 23:56:49.708, 1547020609708
163, -180.37, -194.12, -155.21, -204.82, 0.000, 0.000, 0.000, 23:56:49.723, 1547020609723
164, -187.16, -193.89, -156.64, -202.40, 0.000, 0.000, 0.000, 23:56:49.723, 1547020609723
165, -183.59, -193.65, -152.63, -204.22, 0.000, 0.000, 0.000, 23:56:49.738, 1547020609738
166, -188.12, -195.66, -151.29, -201.85, 0.000, 0.000, 0.000, 23:56:49.738, 1547020609738
167, -184.37, -193.99, -145.25, -201.11, 0.000, 0.000, 0.000, 23:56:49.738, 1547020609738
168, -184.67, -194.03, -146.33, -203.81, 0.000, 0.000, 0.000, 23:56:49.738, 1547020609738
169, -190.84, -193.85, -159.51, -214.67, 0.000, 0.000, 0.000, 23:56:49.753, 1547020609753
170, -195.52, -194.16, -156.62, -209.54, 0.000, 0.000, 0.000, 23:56:49.753, 1547020609753
171, -192.66, -193.25, -162.29, -204.81, 0.000, 0.000, 0.000, 23:56:49.768, 1547020609768
172, -188.56, -194.29, -149.91, -203.85, 0.000, 0.000, 0.000, 23:56:49.768, 1547020609768
173, -184.57, -191.83, -146.66, -204.68, 0.000, 0.000, 0.000, 23:56:49.768, 1547020609768
174, -187.03, -198.97, -149.36, -202.49, 0.000, 0.000, 0.000, 23:56:49.768, 1547020609768
175, -191.44, -195.58, -155.24, -200.52, 0.000, 0.000, 0.000, 23:56:49.783, 1547020609783
176, -185.40, -196.52, -153.27, -201.54, 0.000, 0.000, 0.000, 23:56:49.783, 1547020609783
177, -187.08, -194.62, -148.91, -207.96, 0.000, 0.000, 0.000, 23:56:49.797, 1547020609797
178, -183.62, -192.16, -144.33, -200.57, 0.000, 0.000, 0.000, 23:56:49.797, 1547020609797
179, -195.03, -199.88, -152.16, -205.64, 0.000, 0.000, 0.000, 23:56:49.798, 1547020609798
180, -186.12, -191.36, -142.10, -205.81, 0.000, 0.000, 0.000, 23:56:49.798, 1547020609798
181, -179.08, -191.40, -145.52, -196.09, 0.000, 0.000, 0.000, 23:56:49.813, 1547020609813
182, -184.27, -195.30, -158.72, -207.86, 0.000, 0.000, 0.000, 23:56:49.813, 1547020609813
183, -178.04, -189.28, -147.15, -198.22, 0.000, 0.000, 0.000, 23:56:49.828, 1547020609828
184, -183.19, -188.80, -144.17, -207.93, 0.000, 0.000, 0.000, 23:56:49.828, 1547020609828
185, -181.70, -186.51, -153.84, -214.31, 0.000, 0.000, 0.000, 23:56:49.829, 1547020609829
186, -178.83, -190.97, -154.80, -211.37, 0.000, 0.000, 0.000, 23:56:49.829, 1547020609829
187, -188.35, -194.01, -158.81, -211.38, 0.000, 0.000, 0.000, 23:56:49.843, 1547020609843
188, -184.95, -191.11, -146.83, -200.10, 0.000, 0.000, 0.000, 23:56:49.843, 1547020609843
189, -181.10, -186.41, -150.68, -203.65, 0.000, 0.000, 0.000, 23:56:49.858, 1547020609858
190, -183.55, -189.26, -155.44, -204.36, 0.000, 0.000, 0.000, 23:56:49.858, 1547020609858
191, -180.92, -192.67, -148.26, -205.69, 0.000, 0.000, 0.000, 23:56:49.859, 1547020609859
192, -179.53, -190.12, -140.28, -207.15, 0.000, 0.000, 0.000, 23:56:49.859, 1547020609859
193, -175.53, -188.17, -144.72, -206.37, 0.000, 0.000, 0.000, 23:56:49.873, 1547020609873
194, -178.02, -183.84, -152.94, -213.73, 0.000, 0.000, 0.000, 23:56:49.873, 1547020609873
195, -189.68, -196.15, -163.72, -214.49, 0.000, 0.000, 0.000, 23:56:49.888, 1547020609888
196, -180.79, -193.66, -146.59, -205.97, 0.000, 0.000, 0.000, 23:56:49.888, 1547020609888
197, -178.63, -190.41, -149.22, -205.33, 0.000, 0.000, 0.000, 23:56:49.888, 1547020609888
198, -184.10, -187.63, -147.46, -198.51, 0.000, 0.000, 0.000, 23:56:49.888, 1547020609888
199, -177.89, -184.17, -136.82, -192.55, 0.000, 0.000, 0.000, 23:56:49.902, 1547020609902
200, -180.42, -182.97, -136.29, -197.80, 0.000, 0.000, 0.000, 23:56:49.902, 1547020609902
0, -184.35, -190.88, -153.79, -208.49, 0.000, 0.000, 0.000, 23:56:49.903, 1547020609903
1, -181.57, -191.47, -158.30, -211.47, 0.000, 0.000, 0.000, 23:56:49.918, 1547020609918
2, -179.11, -189.41, -147.10, -207.22, 0.000, 0.000, 0.000, 23:56:49.918, 1547020609918
3, -184.18, -193.29, -152.52, -212.41, 0.000, 0.000, 0.000, 23:56:49.933, 1547020609933
4, -179.05, -186.61, -152.15, -210.96, 0.000, 0.000, 0.000, 23:56:49.933, 1547020609933
5, -177.63, -184.29, -149.38, -209.00, 0.000, 0.000, 0.000, 23:56:49.933, 1547020609933
6, -179.34, -185.92, -149.87, -205.97, 0.000, 0.000, 0.000, 23:56:49.933, 1547020609933
7, -180.26, -184.76, -144.22, -200.08, 0.000, 0.000, 0.000, 23:56:49.948, 1547020609948
8, -180.01, -189.46, -148.85, -206.97, 0.000, 0.000, 0.000, 23:56:49.948, 1547020609948
9, -178.07, -186.44, -143.42, -203.46, 0.000, 0.000, 0.000, 23:56:49.963, 1547020609963
10, -182.46, -188.20, -148.76, -210.73, 0.000, 0.000, 0.000, 23:56:49.963, 1547020609963
11, -184.41, -191.20, -149.86, -201.37, 0.000, 0.000, 0.000, 23:56:49.963, 1547020609963
12, -184.18, -191.18, -145.75, -210.57, 0.000, 0.000, 0.000, 23:56:49.963, 1547020609963
13, -182.52, -186.16, -148.21, -207.36, 0.000, 0.000, 0.000, 23:56:49.978, 1547020609978
14, -191.93, -196.65, -165.93, -214.79, 0.000, 0.000, 0.000, 23:56:49.978, 1547020609978
15, -189.14, -190.36, -149.60, -202.18, 0.000, 0.000, 0.000, 23:56:49.993, 1547020609993
16, -182.90, -191.35, -142.71, -201.77, 0.000, 0.000, 0.000, 23:56:49.993, 1547020609993
17, -184.81, -190.57, -148.94, -205.20, 0.000, 0.000, 0.000, 23:56:49.994, 1547020609994
18, -185.69, -188.92, -146.51, -205.76, 0.000, 0.000, 0.000, 23:56:49.994, 1547020609994
19, -183.87, -190.97, -160.85, -213.07, 0.000, 0.000, 0.000, 23:56:50.008, 1547020610008
20, -186.48, -191.18, -160.28, -210.57, 0.000, 0.000, 0.000, 23:56:50.008, 1547020610008
21, -180.52, -183.52, -149.09, -201.57, 0.000, 0.000, 0.000, 23:56:50.024, 1547020610024
22, -180.49, -190.67, -145.09, -196.81, 0.000, 0.000, 0.000, 23:56:50.024, 1547020610024
23, -189.35, -191.54, -153.24, -205.51, 0.000, 0.000, 0.000, 23:56:50.024, 1547020610024
24, -186.62, -189.90, -156.83, -209.77, 0.000, 0.000, 0.000, 23:56:50.024, 1547020610024
25, -183.30, -186.88, -155.41, -206.96, 0.000, 0.000, 0.000, 23:56:50.038, 1547020610038
26, -185.38, -188.99, -154.31, -205.68, 0.000, 0.000, 0.000, 23:56:50.038, 1547020610038
27, -190.18, -192.99, -149.89, -202.80, 0.000, 0.000, 0.000, 23:56:50.053, 1547020610053
28, -170.63, -182.78, -133.59, -200.20, 0.000, 0.000, 0.000, 23:56:50.053, 1547020610053
29, -174.62, -186.36, -144.07, -203.85, 0.000, 0.000, 0.000, 23:56:50.053, 1547020610053
30, -173.09, -180.21, -142.31, -203.13, 0.000, 0.000, 0.000, 23:56:50.053, 1547020610053
31, -179.20, -186.94, -149.78, -211.07, 0.000, 0.000, 0.000, 23:56:50.068, 1547020610068
32, -182.63, -185.21, -149.68, -204.01, 0.000, 0.000, 0.000, 23:56:50.068, 1547020610068
33, -178.21, -181.75, -147.62, -203.36, 0.000, 0.000, 0.000, 23:56:50.083, 1547020610083
34, -182.45, -188.06, -155.26, -204.03, 0.000, 0.000, 0.000, 23:56:50.083, 1547020610083
35, -183.21, -192.79, -144.35, -205.64, 0.000, 0.000, 0.000, 23:56:50.084, 1547020610084
36, -172.90, -186.14, -147.75, -206.45, 0.000, 0.000, 0.000, 23:56:50.084, 1547020610084
37, -179.21, -183.45, -152.96, -207.02, 0.000, 0.000, 0.000, 23:56:50.098, 1547020610098
38, -182.01, -188.87, -145.99, -207.94, 0.000, 0.000, 0.000, 23:56:50.098, 1547020610098
39, -188.62, -189.65, -146.13, -205.36, 0.000, 0.000, 0.000, 23:56:50.112, 1547020610112
40, -180.78, -189.17, -137.32, -196.13, 0.000, 0.000, 0.000, 23:56:50.112, 1547020610112
41, -187.54, -194.50, -153.98, -206.35, 0.000, 0.000, 0.000, 23:56:50.113, 1547020610113
42, -190.00, -192.47, -157.77, -214.04, 0.000, 0.000, 0.000, 23:56:50.113, 1547020610113
43, -185.15, -196.62, -153.04, -211.11, 0.000, 0.000, 0.000, 23:56:50.128, 1547020610128
44, -179.16, -187.79, -143.09, -209.06, 0.000, 0.000, 0.000, 23:56:50.128, 1547020610128
45, -187.82, -192.72, -147.05, -201.54, 0.000, 0.000, 0.000, 23:56:50.143, 1547020610143
46, -189.30, -192.28, -155.81, -215.50, 0.000, 0.000, 0.000, 23:56:50.143, 1547020610143
47, -191.10, -195.49, -156.02, -209.76, 0.000, 0.000, 0.000, 23:56:50.143, 1547020610143
48, -179.72, -188.47, -146.39, -207.28, 0.000, 0.000, 0.000, 23:56:50.143, 1547020610143
49, -183.00, -187.69, -150.55, -212.07, 0.000, 0.000, 0.000, 23:56:50.164, 1547020610164
50, -188.43, -190.08, -156.40, -208.63, 0.000, 0.000, 0.000, 23:56:50.164, 1547020610164
51, -187.00, -196.50, -161.22, -208.53, 0.000, 0.000, 0.000, 23:56:50.173, 1547020610173
52, -174.03, -188.83, -145.93, -203.38, 0.000, 0.000, 0.000, 23:56:50.173, 1547020610173
53, -186.52, -193.24, -152.65, -211.51, 0.000, 0.000, 0.000, 23:56:50.173, 1547020610173
54, -180.00, -190.49, -152.06, -208.33, 0.000, 0.000, 0.000, 23:56:50.173, 1547020610173
55, -181.89, -192.21, -145.90, -211.51, 0.000, 0.000, 0.000, 23:56:50.188, 1547020610188
56, -178.51, -184.61, -153.76, -208.06, 0.000, 0.000, 0.000, 23:56:50.188, 1547020610188
57, -184.56, -189.67, -163.71, -210.29, 0.000, 0.000, 0.000, 23:56:50.202, 1547020610202
58, -185.51, -188.23, -158.36, -210.87, 0.000, 0.000, 0.000, 23:56:50.202, 1547020610202
59, -183.89, -190.18, -146.46, -200.37, 0.000, 0.000, 0.000, 23:56:50.203, 1547020610203
60, -177.01, -188.45, -147.17, -203.29, 0.000, 0.000, 0.000, 23:56:50.203, 1547020610203
61, -182.38, -192.14, -153.73, -200.84, 0.000, 0.000, 0.000, 23:56:50.220, 1547020610220
62, -186.24, -193.42, -140.79, -200.80, 0.000, 0.000, 0.000, 23:56:50.220, 1547020610220
63, -191.34, -196.27, -140.70, -206.63, 0.000, 0.000, 0.000, 23:56:50.232, 1547020610232
64, -188.61, -195.37, -155.40, -214.30, 0.000, 0.000, 0.000, 23:56:50.232, 1547020610232
65, -190.15, -198.54, -157.58, -213.46, 0.000, 0.000, 0.000, 23:56:50.233, 1547020610233
66, -183.18, -193.88, -154.58, -207.22, 0.000, 0.000, 0.000, 23:56:50.233, 1547020610233
67, -179.35, -192.38, -136.24, -197.70, 0.000, 0.000, 0.000, 23:56:50.248, 1547020610248
68, -181.59, -191.36, -143.00, -197.42, 0.000, 0.000, 0.000, 23:56:50.248, 1547020610248
69, -187.58, -193.26, -146.90, -209.58, 0.000, 0.000, 0.000, 23:56:50.262, 1547020610262
70, -185.34, -189.46, -153.11, -204.74, 0.000, 0.000, 0.000, 23:56:50.262, 1547020610262
71, -186.30, -194.51, -152.17, -206.98, 0.000, 0.000, 0.000, 23:56:50.263, 1547020610263
72, -177.63, -188.71, -146.25, -202.30, 0.000, 0.000, 0.000, 23:56:50.263, 1547020610263
73, -180.06, -190.60, -154.94, -206.37, 0.000, 0.000, 0.000, 23:56:50.278, 1547020610278
74, -184.80, -191.09, -165.98, -209.43, 0.000, 0.000, 0.000, 23:56:50.278, 1547020610278
75, -187.88, -199.00, -158.00, -206.69, 0.000, 0.000, 0.000, 23:56:50.293, 1547020610293
76, -184.85, -195.18, -147.57, -210.93, 0.000, 0.000, 0.000, 23:56:50.293, 1547020610293
77, -190.01, -195.51, -142.69, -196.58, 0.000, 0.000, 0.000, 23:56:50.293, 1547020610293
78, -185.96, -188.73, -149.75, -204.14, 0.000, 0.000, 0.000, 23:56:50.294, 1547020610294
79, -186.58, -197.98, -165.59, -217.50, 0.000, 0.000, 0.000, 23:56:50.308, 1547020610308
80, -186.41, -192.62, -161.57, -214.92, 0.000, 0.000, 0.000, 23:56:50.308, 1547020610308
81, -191.58, -199.20, -155.30, -217.27, 0.000, 0.000, 0.000, 23:56:50.323, 1547020610323
82, -191.98, -191.84, -161.00, -219.41, 0.000, 0.000, 0.000, 23:56:50.323, 1547020610323
83, -184.50, -193.72, -155.61, -208.72, 0.000, 0.000, 0.000, 23:56:50.323, 1547020610323
84, -183.59, -184.90, -148.18, -203.52, 0.000, 0.000, 0.000, 23:56:50.323, 1547020610323
85, -181.07, -188.37, -151.88, -198.19, 0.000, 0.000, 0.000, 23:56:50.338, 1547020610338
86, -182.87, -188.90, -157.82, -205.14, 0.000, 0.000, 0.000, 23:56:50.338, 1547020610338
87, -184.53, -190.46, -165.65, -214.66, 0.000, 0.000, 0.000, 23:56:50.353, 1547020610353
88, -179.48, -188.36, -151.99, -204.40, 0.000, 0.000, 0.000, 23:56:50.353, 1547020610353
89, -184.34, -193.57, -148.46, -205.58, 0.000, 0.000, 0.000, 23:56:50.353, 1547020610353
90, -183.81, -190.34, -148.90, -206.70, 0.000, 0.000, 0.000, 23:56:50.353, 1547020610353
91, -182.91, -194.58, -144.58, -205.91, 0.000, 0.000, 0.000, 23:56:50.368, 1547020610368
92, -178.33, -187.30, -146.96, -196.08, 0.000, 0.000, 0.000, 23:56:50.368, 1547020610368
93, -182.48, -193.55, -154.54, -208.51, 0.000, 0.000, 0.000, 23:56:50.383, 1547020610383
94, -190.39, -189.05, -151.24, -206.88, 0.000, 0.000, 0.000, 23:56:50.383, 1547020610383
95, -182.35, -187.26, -144.77, -206.66, 0.000, 0.000, 0.000, 23:56:50.384, 1547020610384
96, -183.53, -188.06, -146.61, -199.19, 0.000, 0.000, 0.000, 23:56:50.384, 1547020610384
97, -186.49, -188.57, -144.66, -203.44, 0.000, 0.000, 0.000, 23:56:50.398, 1547020610398
98, -189.35, -194.21, -153.10, -211.11, 0.000, 0.000, 0.000, 23:56:50.398, 1547020610398
99, -186.78, -196.85, -149.59, -212.16, 0.000, 0.000, 0.000, 23:56:50.412, 1547020610412
100, -180.45, -195.20, -140.93, -204.65, 0.000, 0.000, 0.000, 23:56:50.412, 1547020610412
101, -184.73, -195.73, -146.72, -198.36, 0.000, 0.000, 0.000, 23:56:50.413, 1547020610413
102, -189.03, -195.37, -157.54, -198.79, 0.000, 0.000, 0.000, 23:56:50.413, 1547020610413
103, -190.69, -200.08, -151.93, -199.99, 0.000, 0.000, 0.000, 23:56:50.428, 1547020610428
104, -181.26, -192.09, -142.27, -202.13, 0.000, 0.000, 0.000, 23:56:50.428, 1547020610428
105, -179.35, -191.01, -149.20, -202.20, 0.000, 0.000, 0.000, 23:56:50.443, 1547020610443
106, -177.36, -183.90, -144.98, -198.37, 0.000, 0.000, 0.000, 23:56:50.443, 1547020610443
107, -184.76, -194.36, -152.87, -212.90, 0.000, 0.000, 0.000, 23:56:50.443, 1547020610443
108, -185.23, -194.41, -152.85, -213.98, 0.000, 0.000, 0.000, 23:56:50.443, 1547020610443
109, -181.73, -189.07, -142.19, -210.83, 0.000, 0.000, 0.000, 23:56:50.458, 1547020610458
110, -180.41, -184.70, -154.89, -219.27, 0.000, 0.000, 0.000, 23:56:50.458, 1547020610458
111, -190.27, -197.49, -167.42, -220.92, 0.000, 0.000, 0.000, 23:56:50.472, 1547020610472
112, -178.85, -188.84, -155.13, -212.94, 0.000, 0.000, 0.000, 23:56:50.472, 1547020610472
113, -196.95, -195.05, -158.64, -217.35, 0.000, 0.000, 0.000, 23:56:50.473, 1547020610473
114, -184.66, -189.45, -152.25, -204.80, 0.000, 0.000, 0.000, 23:56:50.473, 1547020610473
115, -187.89, -189.84, -151.66, -205.80, 0.000, 0.000, 0.000, 23:56:50.488, 1547020610488
116, -180.29, -189.07, -150.42, -201.23, 0.000, 0.000, 0.000, 23:56:50.488, 1547020610488
117, -187.11, -193.54, -156.49, -205.88, 0.000, 0.000, 0.000, 23:56:50.502, 1547020610502
118, -189.83, -194.75, -153.68, -210.65, 0.000, 0.000, 0.000, 23:56:50.502, 1547020610502
119, -183.30, -193.58, -145.10, -205.52, 0.000, 0.000, 0.000, 23:56:50.503, 1547020610503
120, -182.28, -193.55, -149.88, -204.38, 0.000, 0.000, 0.000, 23:56:50.503, 1547020610503
121, -178.19, -190.64, -140.82, -195.59, 0.000, 0.000, 0.000, 23:56:50.517, 1547020610517
122, -182.56, -192.87, -152.01, -203.16, 0.000, 0.000, 0.000, 23:56:50.517, 1547020610517
123, -181.89, -195.41, -145.84, -205.81, 0.000, 0.000, 0.000, 23:56:50.533, 1547020610533
124, -178.59, -190.92, -142.21, -201.37, 0.000, 0.000, 0.000, 23:56:50.533, 1547020610533
125, -186.39, -194.15, -160.94, -212.83, 0.000, 0.000, 0.000, 23:56:50.533, 1547020610533
126, -187.73, -193.20, -162.63, -217.18, 0.000, 0.000, 0.000, 23:56:50.533, 1547020610533
127, -186.10, -192.79, -144.78, -202.62, 0.000, 0.000, 0.000, 23:56:50.548, 1547020610548
128, -182.75, -189.57, -127.35, -200.18, 0.000, 0.000, 0.000, 23:56:50.548, 1547020610548
129, -187.51, -192.15, -155.39, -210.36, 0.000, 0.000, 0.000, 23:56:50.562, 1547020610562
130, -179.63, -189.39, -149.67, -204.42, 0.000, 0.000, 0.000, 23:56:50.562, 1547020610562
131, -185.16, -191.59, -148.79, -211.74, 0.000, 0.000, 0.000, 23:56:50.563, 1547020610563
132, -176.26, -188.61, -147.81, -208.40, 0.000, 0.000, 0.000, 23:56:50.563, 1547020610563
133, -176.30, -187.93, -140.07, -201.05, 0.000, 0.000, 0.000, 23:56:50.578, 1547020610578
134, -175.54, -189.25, -145.08, -199.70, 0.000, 0.000, 0.000, 23:56:50.578, 1547020610578
135, -180.06, -189.25, -160.32, -200.42, 0.000, 0.000, 0.000, 23:56:50.593, 1547020610593
136, -184.27, -193.06, -156.90, -198.38, 0.000, 0.000, 0.000, 23:56:50.593, 1547020610593
137, -183.84, -191.80, -154.32, -205.10, 0.000, 0.000, 0.000, 23:56:50.600, 1547020610600
138, -190.83, -192.38, -153.23, -202.71, 0.000, 0.000, 0.000, 23:56:50.600, 1547020610600
139, -184.63, -191.91, -146.76, -203.05, 0.000, 0.000, 0.000, 23:56:50.608, 1547020610608
140, -181.78, -189.14, -143.43, -196.32, 0.000, 0.000, 0.000, 23:56:50.608, 1547020610608
141, -179.95, -187.77, -147.84, -209.86, 0.000, 0.000, 0.000, 23:56:50.623, 1547020610623
142, -193.18, -190.71, -168.73, -222.75, 0.000, 0.000, 0.000, 23:56:50.623, 1547020610623
143, -187.23, -195.20, -157.47, -221.16, 0.000, 0.000, 0.000, 23:56:50.624, 1547020610624
144, -174.97, -190.71, -148.35, -209.60, 0.000, 0.000, 0.000, 23:56:50.624, 1547020610624
145, -181.16, -192.27, -154.56, -209.43, 0.000, 0.000, 0.000, 23:56:50.637, 1547020610637
146, -186.28, -192.23, -157.89, -211.97, 0.000, 0.000, 0.000, 23:56:50.637, 1547020610637
147, -182.30, -187.25, -155.28, -205.24, 0.000, 0.000, 0.000, 23:56:50.660, 1547020610660
148, -182.50, -186.96, -154.43, -208.85, 0.000, 0.000, 0.000, 23:56:50.660, 1547020610660
149, -180.29, -186.77, -151.21, -200.73, 0.000, 0.000, 0.000, 23:56:50.662, 1547020610662
150, -185.44, -187.70, -151.55, -201.59, 0.000, 0.000, 0.000, 23:56:50.662, 1547020610662
151, -182.53, -189.12, -149.11, -196.17, 0.000, 0.000, 0.000, 23:56:50.668, 1547020610668
152, -188.04, -192.75, -154.06, -200.17, 0.000, 0.000, 0.000, 23:56:50.668, 1547020610668
153, -181.18, -188.88, -137.53, -194.42, 0.000, 0.000, 0.000, 23:56:50.683, 1547020610683
154, -183.35, -188.36, -149.31, -202.80, 0.000, 0.000, 0.000, 23:56:50.683, 1547020610683
155, -185.06, -192.30, -160.30, -206.74, 0.000, 0.000, 0.000, 23:56:50.683, 1547020610683
156, -174.53, -185.90, -143.84, -197.95, 0.000, 0.000, 0.000, 23:56:50.683, 1547020610683
157, -182.55, -188.49, -154.18, -212.58, 0.000, 0.000, 0.000, 23:56:50.698, 1547020610698
158, -177.40, -188.00, -146.09, -218.75, 0.000, 0.000, 0.000, 23:56:50.698, 1547020610698
159, -174.82, -184.09, -143.72, -207.36, 0.000, 0.000, 0.000, 23:56:50.713, 1547020610713
160, -181.24, -191.60, -151.93, -211.68, 0.000, 0.000, 0.000, 23:56:50.713, 1547020610713
161, -184.49, -187.78, -145.99, -207.61, 0.000, 0.000, 0.000, 23:56:50.713, 1547020610713
162, -183.51, -188.58, -141.40, -206.94, 0.000, 0.000, 0.000, 23:56:50.713, 1547020610713
163, -190.63, -193.37, -153.63, -209.66, 0.000, 0.000, 0.000, 23:56:50.728, 1547020610728
164, -184.25, -187.35, -163.16, -211.11, 0.000, 0.000, 0.000, 23:56:50.728, 1547020610728
165, -183.00, -189.96, -148.47, -202.12, 0.000, 0.000, 0.000, 23:56:50.743, 1547020610743
166, -189.09, -192.14, -153.01, -212.62, 0.000, 0.000, 0.000, 23:56:50.743, 1547020610743
167, -187.64, -193.39, -173.81, -216.88, 0.000, 0.000, 0.000, 23:56:50.743, 1547020610743
168, -184.06, -194.18, -158.73, -208.33, 0.000, 0.000, 0.000, 23:56:50.743, 1547020610743
169, -175.93, -187.84, -149.61, -202.55, 0.000, 0.000, 0.000, 23:56:50.759, 1547020610759
170, -183.01, -192.51, -154.21, -208.62, 0.000, 0.000, 0.000, 23:56:50.759, 1547020610759
171, -176.95, -188.04, -148.76, -207.87, 0.000, 0.000, 0.000, 23:56:50.773, 1547020610773
172, -178.18, -185.70, -143.98, -197.17, 0.000, 0.000, 0.000, 23:56:50.773, 1547020610773
173, -187.22, -192.34, -152.18, -208.20, 0.000, 0.000, 0.000, 23:56:50.773, 1547020610773
174, -183.63, -191.93, -140.98, -208.87, 0.000, 0.000, 0.000, 23:56:50.773, 1547020610773
175, -186.79, -192.52, -144.86, -211.15, 0.000, 0.000, 0.000, 23:56:50.800, 1547020610800
176, -181.96, -193.08, -148.71, -210.56, 0.000, 0.000, 0.000, 23:56:50.800, 1547020610800
177, -183.60, -189.60, -151.79, -210.87, 0.000, 0.000, 0.000, 23:56:50.802, 1547020610802
178, -187.04, -196.52, -154.74, -211.62, 0.000, 0.000, 0.000, 23:56:50.802, 1547020610802
179, -187.47, -196.64, -155.30, -216.41, 0.000, 0.000, 0.000, 23:56:50.803, 1547020610803
180, -182.61, -189.08, -152.43, -212.51, 0.000, 0.000, 0.000, 23:56:50.803, 1547020610803
181, -182.88, -188.59, -160.51, -214.28, 0.000, 0.000, 0.000, 23:56:50.820, 1547020610820
182, -185.31, -187.33, -164.11, -214.35, 0.000, 0.000, 0.000, 23:56:50.820, 1547020610820
183, -186.30, -190.11, -153.02, -210.96, 0.000, 0.000, 0.000, 23:56:50.833, 1547020610833
184, -186.19, -192.00, -151.43, -209.20, 0.000, 0.000, 0.000, 23:56:50.833, 1547020610833
185, -177.67, -185.73, -135.87, -199.90, 0.000, 0.000, 0.000, 23:56:50.833, 1547020610833
186, -184.62, -190.39, -141.72, -202.51, 0.000, 0.000, 0.000, 23:56:50.833, 1547020610833
187, -181.18, -196.87, -161.14, -209.65, 0.000, 0.000, 0.000, 23:56:50.854, 1547020610854
188, -174.71, -190.48, -154.91, -212.96, 0.000, 0.000, 0.000, 23:56:50.854, 1547020610854
189, -180.68, -188.50, -142.56, -205.11, 0.000, 0.000, 0.000, 23:56:50.863, 1547020610863
190, -182.89, -190.26, -145.94, -205.98, 0.000, 0.000, 0.000, 23:56:50.863, 1547020610863
191, -183.79, -195.47, -148.80, -202.73, 0.000, 0.000, 0.000, 23:56:50.863, 1547020610863
192, -183.36, -197.09, -149.24, -203.07, 0.000, 0.000, 0.000, 23:56:50.863, 1547020610863
193, -184.37, -190.63, -146.55, -198.81, 0.000, 0.000, 0.000, 23:56:50.878, 1547020610878
194, -184.02, -188.77, -150.82, -205.16, 0.000, 0.000, 0.000, 23:56:50.878, 1547020610878
195, -182.25, -192.96, -149.58, -206.52, 0.000, 0.000, 0.000, 23:56:50.893, 1547020610893
196, -177.68, -188.63, -140.71, -202.66, 0.000, 0.000, 0.000, 23:56:50.893, 1547020610893
197, -184.75, -186.60, -147.70, -199.70, 0.000, 0.000, 0.000, 23:56:50.893, 1547020610893
198, -183.77, -190.61, -143.69, -201.89, 0.000, 0.000, 0.000, 23:56:50.893, 1547020610893
199, -179.93, -190.53, -149.11, -204.03, 0.000, 0.000, 0.000, 23:56:50.908, 1547020610908
200, -175.07, -186.02, -139.00, -200.51, 0.000, 0.000, 0.000, 23:56:50.908, 1547020610908
0, -185.39, -191.69, -152.50, -207.81, 0.000, 0.000, 0.000, 23:56:50.908, 1547020610908
1, -188.51, -193.70, -153.25, -207.25, 0.000, 0.000, 0.000, 23:56:50.923, 1547020610923
2, -191.00, -196.36, -152.71, -199.26, 0.000, 0.000, 0.000, 23:56:50.923, 1547020610923
3, -183.10, -190.99, -148.15, -206.52, 0.000, 0.000, 0.000, 23:56:50.938, 1547020610938
4, -181.21, -188.29, -140.65, -204.18, 0.000, 0.000, 0.000, 23:56:50.938, 1547020610938
5, -190.24, -195.74, -151.25, -208.14, 0.000, 0.000, 0.000, 23:56:50.938, 1547020610938
6, -186.20, -195.51, -146.08, -208.24, 0.000, 0.000, 0.000, 23:56:50.938, 1547020610938
7, -175.35, -190.02, -135.08, -195.92, 0.000, 0.000, 0.000, 23:56:50.953, 1547020610953
8, -185.33, -190.81, -135.29, -189.30, 0.000, 0.000, 0.000, 23:56:50.953, 1547020610953
9, -189.28, -197.17, -151.00, -209.23, 0.000, 0.000, 0.000, 23:56:50.967, 1547020610967
10, -183.80, -193.18, -149.03, -200.87, 0.000, 0.000, 0.000, 23:56:50.967, 1547020610967
11, -180.41, -193.06, -143.73, -198.46, 0.000, 0.000, 0.000, 23:56:50.968, 1547020610968
12, -184.50, -190.54, -142.51, -206.79, 0.000, 0.000, 0.000, 23:56:50.968, 1547020610968
13, -175.87, -190.51, -140.08, -204.48, 0.000, 0.000, 0.000, 23:56:50.983, 1547020610983
14, -180.41, -191.08, -156.37, -205.95, 0.000, 0.000, 0.000, 23:56:50.983, 1547020610983
15, -175.29, -186.87, -143.69, -196.00, 0.000, 0.000, 0.000, 23:56:50.997, 1547020610997
16, -182.35, -190.16, -156.56, -198.72, 0.000, 0.000, 0.000, 23:56:50.997, 1547020610997
17, -182.27, -194.52, -155.33, -207.54, 0.000, 0.000, 0.000, 23:56:50.998, 1547020610998
18, -179.70, -191.86, -145.04, -200.68, 0.000, 0.000, 0.000, 23:56:50.998, 1547020610998
19, -176.52, -185.37, -150.82, -203.12, 0.000, 0.000, 0.000, 23:56:51.013, 1547020611013
20, -172.59, -184.20, -151.69, -198.05, 0.000, 0.000, 0.000, 23:56:51.013, 1547020611013
21, -182.60, -189.43, -154.78, -205.50, 0.000, 0.000, 0.000, 23:56:51.028, 1547020611028
22, -181.59, -190.46, -145.82, -200.33, 0.000, 0.000, 0.000, 23:56:51.028, 1547020611028
23, -182.63, -187.00, -152.99, -208.71, 0.000, 0.000, 0.000, 23:56:51.028, 1547020611028
24, -174.46, -181.51, -147.45, -202.77, 0.000, 0.000, 0.000, 23:56:51.028, 1547020611028
25, -183.39, -185.15, -162.19, -208.07, 0.000, 0.000, 0.000, 23:56:51.043, 1547020611043
26, -180.33, -189.40, -150.60, -206.60, 0.000, 0.000, 0.000, 23:56:51.043, 1547020611043
27, -176.28, -186.66, -161.25, -212.87, 0.000, 0.000, 0.000, 23:56:51.058, 1547020611058
28, -181.52, -192.39, -146.18, -206.73, 0.000, 0.000, 0.000, 23:56:51.058, 1547020611058
29, -180.92, -186.36, -145.07, -207.88, 0.000, 0.000, 0.000, 23:56:51.058, 1547020611058
30, -179.44, -189.85, -156.97, -208.45, 0.000, 0.000, 0.000, 23:56:51.058, 1547020611058
31, -176.66, -188.07, -148.55, -198.31, 0.000, 0.000, 0.000, 23:56:51.073, 1547020611073
32, -182.33, -190.45, -155.55, -208.60, 0.000, 0.000, 0.000, 23:56:51.073, 1547020611073
33, -184.48, -194.63, -154.56, -209.94, 0.000, 0.000, 0.000, 23:56:51.088, 1547020611088
34, -179.97, -191.89, -152.33, -205.30, 0.000, 0.000, 0.000, 23:56:51.088, 1547020611088
35, -181.03, -192.47, -145.08, -206.42, 0.000, 0.000, 0.000, 23:56:51.088, 1547020611088
36, -185.92, -194.12, -155.28, -211.78, 0.000, 0.000, 0.000, 23:56:51.088, 1547020611088
37, -191.91, -196.56, -160.74, -205.77, 0.000, 0.000, 0.000, 23:56:51.103, 1547020611103
38, -187.30, -196.31, -156.84, -209.02, 0.000, 0.000, 0.000, 23:56:51.103, 1547020611103
39, -171.75, -191.10, -140.65, -201.36, 0.000, 0.000, 0.000, 23:56:51.119, 1547020611119
40, -180.78, -189.88, -154.87, -208.65, 0.000, 0.000, 0.000, 23:56:51.119, 1547020611119
41, -177.50, -185.32, -150.64, -196.86, 0.000, 0.000, 0.000, 23:56:51.120, 1547020611120
42, -187.25, -191.82, -153.75, -207.35, 0.000, 0.000, 0.000, 23:56:51.120, 1547020611120
43, -172.42, -182.57, -134.45, -200.47, 0.000, 0.000, 0.000, 23:56:51.133, 1547020611133
44, -180.86, -185.74, -143.38, -205.16, 0.000, 0.000, 0.000, 23:56:51.133, 1547020611133
45, -185.31, -188.53, -156.15, -213.14, 0.000, 0.000, 0.000, 23:56:51.148, 1547020611148
46, -186.46, -191.51, -152.82, -205.36, 0.000, 0.000, 0.000, 23:56:51.148, 1547020611148
47, -180.13, -192.06, -151.12, -208.28, 0.000, 0.000, 0.000, 23:56:51.148, 1547020611148
48, -182.64, -190.59, -143.68, -203.42, 0.000, 0.000, 0.000, 23:56:51.148, 1547020611148
49, -179.19, -189.65, -143.74, -204.63, 0.000, 0.000, 0.000, 23:56:51.163, 1547020611163
50, -186.49, -194.29, -165.15, -211.67, 0.000, 0.000, 0.000, 23:56:51.163, 1547020611163
51, -182.32, -193.99, -155.01, -210.64, 0.000, 0.000, 0.000, 23:56:51.178, 1547020611178
52, -180.73, -191.12, -150.55, -206.85, 0.000, 0.000, 0.000, 23:56:51.178, 1547020611178
53, -181.57, -189.03, -153.40, -208.16, 0.000, 0.000, 0.000, 23:56:51.178, 1547020611178
54, -179.03, -186.40, -143.24, -201.61, 0.000, 0.000, 0.000, 23:56:51.178, 1547020611178
55, -183.67, -189.38, -151.15, -204.62, 0.000, 0.000, 0.000, 23:56:51.193, 1547020611193
56, -181.24, -187.85, -146.90, -209.52, 0.000, 0.000, 0.000, 23:56:51.193, 1547020611193
57, -181.30, -192.89, -146.43, -210.81, 0.000, 0.000, 0.000, 23:56:51.208, 1547020611208
58, -184.10, -189.35, -152.35, -203.10, 0.000, 0.000, 0.000, 23:56:51.208, 1547020611208
59, -185.23, -193.75, -148.42, -205.11, 0.000, 0.000, 0.000, 23:56:51.208, 1547020611208
60, -182.46, -190.95, -146.34, -204.97, 0.000, 0.000, 0.000, 23:56:51.208, 1547020611208
61, -183.95, -187.30, -147.60, -205.98, 0.000, 0.000, 0.000, 23:56:51.223, 1547020611223
62, -182.50, -191.50, -156.59, -207.60, 0.000, 0.000, 0.000, 23:56:51.223, 1547020611223
63, -185.51, -190.29, -152.03, -207.03, 0.000, 0.000, 0.000, 23:56:51.237, 1547020611237
64, -184.69, -189.52, -157.32, -206.17, 0.000, 0.000, 0.000, 23:56:51.237, 1547020611237
65, -187.02, -192.19, -154.47, -207.55, 0.000, 0.000, 0.000, 23:56:51.238, 1547020611238
66, -185.75, -190.97, -143.12, -206.12, 0.000, 0.000, 0.000, 23:56:51.238, 1547020611238
67, -176.29, -188.53, -150.07, -206.37, 0.000, 0.000, 0.000, 23:56:51.253, 1547020611253
68, -175.92, -183.91, -157.54, -206.90, 0.000, 0.000, 0.000, 23:56:51.253, 1547020611253
69, -188.05, -194.04, -164.06, -216.18, 0.000, 0.000, 0.000, 23:56:51.268, 1547020611268
70, -190.63, -195.43, -154.89, -208.65, 0.000, 0.000, 0.000, 23:56:51.268, 1547020611268
71, -184.50, -191.90, -150.77, -208.48, 0.000, 0.000, 0.000, 23:56:51.268, 1547020611268
72, -185.05, -192.00, -152.95, -208.64, 0.000, 0.000, 0.000, 23:56:51.268, 1547020611268
73, -188.20, -196.10, -155.03, -211.37, 0.000, 0.000, 0.000, 23:56:51.283, 1547020611283
74, -187.78, -193.54, -150.30, -210.44, 0.000, 0.000, 0.000, 23:56:51.283, 1547020611283
75, -182.53, -189.97, -146.21, -202.29, 0.000, 0.000, 0.000, 23:56:51.297, 1547020611297
76, -183.26, -187.59, -156.57, -203.87, 0.000, 0.000, 0.000, 23:56:51.297, 1547020611297
77, -188.60, -189.77, -158.65, -212.21, 0.000, 0.000, 0.000, 23:56:51.298, 1547020611298
78, -183.26, -190.67, -146.14, -212.43, 0.000, 0.000, 0.000, 23:56:51.298, 1547020611298
79, -175.49, -184.74, -130.34, -201.89, 0.000, 0.000, 0.000, 23:56:51.313, 1547020611313
80, -182.97, -192.69, -167.46, -218.68, 0.000, 0.000, 0.000, 23:56:51.313, 1547020611313
81, -189.04, -192.23, -165.88, -213.83, 0.000, 0.000, 0.000, 23:56:51.328, 1547020611328
82, -185.45, -192.26, -149.92, -207.12, 0.000, 0.000, 0.000, 23:56:51.328, 1547020611328
83, -185.36, -196.14, -153.45, -210.37, 0.000, 0.000, 0.000, 23:56:51.329, 1547020611329
84, -182.05, -197.14, -161.25, -219.28, 0.000, 0.000, 0.000, 23:56:51.329, 1547020611329
85, -194.16, -200.08, -160.43, -218.48, 0.000, 0.000, 0.000, 23:56:51.349, 1547020611349
86, -181.44, -190.14, -153.42, -213.45, 0.000, 0.000, 0.000, 23:56:51.349, 1547020611349
87, -183.66, -190.36, -150.93, -211.70, 0.000, 0.000, 0.000, 23:56:51.358, 1547020611358
88, -179.83, -187.68, -153.21, -204.53, 0.000, 0.000, 0.000, 23:56:51.358, 1547020611358
89, -184.89, -194.98, -157.50, -217.87, 0.000, 0.000, 0.000, 23:56:51.358, 1547020611358
90, -179.05, -194.52, -149.26, -208.71, 0.000, 0.000, 0.000, 23:56:51.358, 1547020611358
91, -188.51, -198.53, -157.91, -214.82, 0.000, 0.000, 0.000, 23:56:51.373, 1547020611373
92, -188.74, -194.24, -151.43, -207.30, 0.000, 0.000, 0.000, 23:56:51.373, 1547020611373
93, -193.81, -201.04, -157.10, -210.05, 0.000, 0.000, 0.000, 23:56:51.388, 1547020611388
94, -190.68, -203.97, -152.44, -206.27, 0.000, 0.000, 0.000, 23:56:51.388, 1547020611388
95, -182.53, -199.01, -151.03, -206.32, 0.000, 0.000, 0.000, 23:56:51.388, 1547020611388
96, -185.87, -192.48, -149.81, -205.74, 0.000, 0.000, 0.000, 23:56:51.388, 1547020611388
97, -185.50, -190.89, -159.23, -207.68, 0.000, 0.000, 0.000, 23:56:51.403, 1547020611403
98, -187.36, -197.14, -156.93, -211.65, 0.000, 0.000, 0.000, 23:56:51.403, 1547020611403
99, -188.35, -189.55, -139.12, -197.90, 0.000, 0.000, 0.000, 23:56:51.418, 1547020611418
100, -183.19, -189.45, -145.10, -201.33, 0.000, 0.000, 0.000, 23:56:51.418, 1547020611418
101, -187.62, -195.56, -170.20, -221.16, 0.000, 0.000, 0.000, 23:56:51.420, 1547020611420
102, -188.50, -195.82, -153.30, -219.44, 0.000, 0.000, 0.000, 23:56:51.420, 1547020611420
103, -184.20, -192.10, -148.61, -209.16, 0.000, 0.000, 0.000, 23:56:51.433, 1547020611433
104, -185.60, -192.47, -139.70, -207.54, 0.000, 0.000, 0.000, 23:56:51.433, 1547020611433
105, -190.29, -193.20, -155.57, -206.38, 0.000, 0.000, 0.000, 23:56:51.448, 1547020611448
106, -182.40, -188.79, -148.68, -194.20, 0.000, 0.000, 0.000, 23:56:51.448, 1547020611448
107, -183.24, -191.74, -152.91, -210.55, 0.000, 0.000, 0.000, 23:56:51.448, 1547020611448
108, -183.14, -190.72, -159.49, -219.90, 0.000, 0.000, 0.000, 23:56:51.448, 1547020611448
109, -188.74, -191.66, -158.04, -219.90, 0.000, 0.000, 0.000, 23:56:51.463, 1547020611463
110, -187.27, -193.42, -157.21, -216.48, 0.000, 0.000, 0.000, 23:56:51.463, 1547020611463
111, -189.20, -192.99, -144.51, -212.68, 0.000, 0.000, 0.000, 23:56:51.478, 1547020611478
112, -178.88, -188.49, -150.67, -209.17, 0.000, 0.000, 0.000, 23:56:51.478, 1547020611478
113, -191.78, -192.95, -161.79, -212.09, 0.000, 0.000, 0.000, 23:56:51.478, 1547020611478
114, -183.79, -190.67, -150.71, -202.71, 0.000, 0.000, 0.000, 23:56:51.478, 1547020611478
115, -184.66, -197.04, -155.62, -217.33, 0.000, 0.000, 0.000, 23:56:51.493, 1547020611493
116, -184.14, -185.43, -151.04, -205.94, 0.000, 0.000, 0.000, 23:56:51.493, 1547020611493
117, -184.72, -189.78, -149.40, -206.44, 0.000, 0.000, 0.000, 23:56:51.507, 1547020611507
118, -183.98, -191.48, -154.88, -210.75, 0.000, 0.000, 0.000, 23:56:51.507, 1547020611507
119, -175.03, -185.22, -153.37, -205.77, 0.000, 0.000, 0.000, 23:56:51.508, 1547020611508
120, -177.04, -183.82, -150.13, -199.86, 0.000, 0.000, 0.000, 23:56:51.508, 1547020611508
121, -181.18, -184.51, -154.06, -207.46, 0.000, 0.000, 0.000, 23:56:51.523, 1547020611523
122, -185.16, -189.93, -146.96, -208.66, 0.000, 0.000, 0.000, 23:56:51.523, 1547020611523
123, -183.63, -191.69, -147.93, -205.97, 0.000, 0.000, 0.000, 23:56:51.538, 1547020611538
124, -182.18, -191.97, -152.72, -211.29, 0.000, 0.000, 0.000, 23:56:51.538, 1547020611538
125, -188.98, -190.21, -145.44, -203.35, 0.000, 0.000, 0.000, 23:56:51.538, 1547020611538
126, -176.42, -188.95, -142.50, -199.79, 0.000, 0.000, 0.000, 23:56:51.538, 1547020611538
127, -189.84, -200.03, -159.43, -209.20, 0.000, 0.000, 0.000, 23:56:51.553, 1547020611553
128, -180.57, -183.54, -150.99, -204.06, 0.000, 0.000, 0.000, 23:56:51.553, 1547020611553
129, -188.36, -193.00, -149.86, -205.62, 0.000, 0.000, 0.000, 23:56:51.567, 1547020611567
130, -178.09, -181.54, -149.99, -199.69, 0.000, 0.000, 0.000, 23:56:51.567, 1547020611567
131, -182.46, -188.85, -149.80, -209.84, 0.000, 0.000, 0.000, 23:56:51.568, 1547020611568
132, -183.52, -188.83, -148.81, -201.70, 0.000, 0.000, 0.000, 23:56:51.568, 1547020611568
133, -182.51, -190.92, -155.25, -209.82, 0.000, 0.000, 0.000, 23:56:51.583, 1547020611583
134, -176.66, -187.66, -141.90, -196.95, 0.000, 0.000, 0.000, 23:56:51.583, 1547020611583
135, -179.51, -189.92, -149.84, -203.86, 0.000, 0.000, 0.000, 23:56:51.597, 1547020611597
136, -184.71, -191.11, -159.04, -215.91, 0.000, 0.000, 0.000, 23:56:51.597, 1547020611597
137, -184.75, -189.09, -150.69, -209.32, 0.000, 0.000, 0.000, 23:56:51.598, 1547020611598
138, -184.48, -192.70, -152.26, -213.45, 0.000, 0.000, 0.000, 23:56:51.598, 1547020611598
139, -188.83, -190.89, -157.40, -211.90, 0.000, 0.000, 0.000, 23:56:51.613, 1547020611613
140, -182.32, -188.77, -152.00, -203.20, 0.000, 0.000, 0.000, 23:56:51.613, 1547020611613
141, -183.14, -189.08, -147.21, -203.94, 0.000, 0.000, 0.000, 23:56:51.627, 1547020611627
142, -180.89, -190.28, -149.13, -204.37, 0.000, 0.000, 0.000, 23:56:51.627, 1547020611627
143, -184.26, -191.47, -150.58, -205.97, 0.000, 0.000, 0.000, 23:56:51.628, 1547020611628
144, -188.93, -190.88, -145.69, -208.88, 0.000, 0.000, 0.000, 23:56:51.628, 1547020611628
145, -189.45, -192.79, -156.87, -208.66, 0.000, 0.000, 0.000, 23:56:51.642, 1547020611642
146, -184.08, -193.49, -157.57, -211.42, 0.000, 0.000, 0.000, 23:56:51.642, 1547020611642
147, -178.77, -190.52, -150.23, -206.92, 0.000, 0.000, 0.000, 23:56:51.658, 1547020611658
148, -176.85, -189.21, -152.28, -197.90, 0.000, 0.000, 0.000, 23:56:51.658, 1547020611658
149, -177.18, -184.71, -148.46, -202.35, 0.000, 0.000, 0.000, 23:56:51.658, 1547020611658
150, -181.82, -187.61, -159.91, -216.58, 0.000, 0.000, 0.000, 23:56:51.658, 1547020611658
151, -180.86, -187.69, -152.70, -207.01, 0.000, 0.000, 0.000, 23:56:51.673, 1547020611673
152, -179.03, -186.13, -145.43, -199.82, 0.000, 0.000, 0.000, 23:56:51.673, 1547020611673
153, -178.94, -185.78, -152.32, -205.69, 0.000, 0.000, 0.000, 23:56:51.688, 1547020611688
154, -186.34, -194.51, -154.70, -204.94, 0.000, 0.000, 0.000, 23:56:51.688, 1547020611688
155, -180.35, -186.48, -151.12, -208.71, 0.000, 0.000, 0.000, 23:56:51.688, 1547020611688
156, -182.39, -189.29, -152.55, -212.93, 0.000, 0.000, 0.000, 23:56:51.688, 1547020611688
157, -189.14, -192.94, -150.76, -206.07, 0.000, 0.000, 0.000, 23:56:51.703, 1547020611703
158, -180.55, -191.35, -139.83, -200.41, 0.000, 0.000, 0.000, 23:56:51.703, 1547020611703
159, -173.06, -187.87, -142.20, -196.91, 0.000, 0.000, 0.000, 23:56:51.718, 1547020611718
160, -180.50, -191.26, -155.33, -201.24, 0.000, 0.000, 0.000, 23:56:51.718, 1547020611718
161, -183.45, -192.46, -155.31, -203.52, 0.000, 0.000, 0.000, 23:56:51.718, 1547020611718
162, -183.26, -190.93, -143.15, -199.62, 0.000, 0.000, 0.000, 23:56:51.718, 1547020611718
163, -180.29, -193.96, -149.37, -210.34, 0.000, 0.000, 0.000, 23:56:51.733, 1547020611733
164, -177.00, -186.90, -159.91, -212.28, 0.000, 0.000, 0.000, 23:56:51.733, 1547020611733
165, -186.99, -190.52, -147.11, -205.49, 0.000, 0.000, 0.000, 23:56:51.748, 1547020611748
166, -185.53, -188.80, -145.25, -204.02, 0.000, 0.000, 0.000, 23:56:51.748, 1547020611748
167, -182.12, -194.14, -147.32, -211.03, 0.000, 0.000, 0.000, 23:56:51.755, 1547020611755
168, -186.76, -195.02, -145.88, -214.01, 0.000, 0.000, 0.000, 23:56:51.755, 1547020611755
169, -190.41, -194.43, -160.12, -216.38, 0.000, 0.000, 0.000, 23:56:51.763, 1547020611763
170, -186.36, -194.82, -152.98, -213.98, 0.000, 0.000, 0.000, 23:56:51.763, 1547020611763
171, -186.79, -195.46, -147.89, -210.28, 0.000, 0.000, 0.000, 23:56:51.778, 1547020611778
172, -182.68, -193.84, -156.98, -214.84, 0.000, 0.000, 0.000, 23:56:51.778, 1547020611778
173, -188.38, -190.79, -156.04, -213.42, 0.000, 0.000, 0.000, 23:56:51.778, 1547020611778
174, -185.23, -194.34, -162.30, -214.54, 0.000, 0.000, 0.000, 23:56:51.778, 1547020611778
175, -180.11, -193.62, -146.22, -208.71, 0.000, 0.000, 0.000, 23:56:51.793, 1547020611793
176, -183.14, -187.48, -149.33, -204.37, 0.000, 0.000, 0.000, 23:56:51.793, 1547020611793
177, -186.79, -192.60, -165.20, -215.81, 0.000, 0.000, 0.000, 23:56:51.808, 1547020611808
178, -190.74, -191.98, -160.41, -212.26, 0.000, 0.000, 0.000, 23:56:51.808, 1547020611808
179, -180.83, -190.13, -140.28, -202.19, 0.000, 0.000, 0.000, 23:56:51.808, 1547020611808
180, -180.33, -189.34, -152.22, -215.08, 0.000, 0.000, 0.000, 23:56:51.808, 1547020611808
181, -192.10, -193.78, -163.97, -213.92, 0.000, 0.000, 0.000, 23:56:51.823, 1547020611823
182, -187.30, -193.29, -153.88, -209.29, 0.000, 0.000, 0.000, 23:56:51.823, 1547020611823
183, -181.83, -186.46, -159.23, -214.88, 0.000, 0.000, 0.000, 23:56:51.837, 1547020611837
184, -183.13, -188.71, -150.36, -210.34, 0.000, 0.000, 0.000, 23:56:51.837, 1547020611837
185, -181.17, -186.77, -153.82, -203.39, 0.000, 0.000, 0.000, 23:56:51.838, 1547020611838
186, -181.08, -188.68, -153.04, -210.57, 0.000, 0.000, 0.000, 23:56:51.838, 1547020611838
187, -184.31, -190.95, -155.48, -216.21, 0.000, 0.000, 0.000, 23:56:51.853, 1547020611853
188, -190.31, -192.01, -161.16, -214.89, 0.000, 0.000, 0.000, 23:56:51.853, 1547020611853
189, -187.71, -188.47, -160.07, -217.15, 0.000, 0.000, 0.000, 23:56:51.868, 1547020611868
190, -187.00, -189.48, -158.64, -212.26, 0.000, 0.000, 0.000, 23:56:51.868, 1547020611868
191, -183.44, -185.43, -153.34, -204.29, 0.000, 0.000, 0.000, 23:56:51.868, 1547020611868
192, -183.14, -187.11, -157.47, -207.12, 0.000, 0.000, 0.000, 23:56:51.868, 1547020611868
193, -187.57, -188.85, -161.37, -208.73, 0.000, 0.000, 0.000, 23:56:51.883, 1547020611883
194, -185.66, -190.99, -153.37, -206.00, 0.000, 0.000, 0.000, 23:56:51.883, 1547020611883
195, -177.27, -186.53, -150.21, -207.72, 0.000, 0.000, 0.000, 23:56:51.898, 1547020611898
196, -185.36, -191.68, -145.66, -208.92, 0.000, 0.000, 0.000, 23:56:51.898, 1547020611898
197, -182.15, -189.93, -158.55, -204.33, 0.000, 0.000, 0.000, 23:56:51.898, 1547020611898
198, -182.48, -188.69, -151.66, -202.98, 0.000, 0.000, 0.000, 23:56:51.898, 1547020611898
199, -183.07, -193.32, -147.16, -211.83, 0.000, 0.000, 0.000, 23:56:51.913, 1547020611913
200, -178.45, -187.42, -135.46, -204.82, 0.000, 0.000, 0.000, 23:56:51.913, 1547020611913
0, -183.58, -187.40, -148.03, -208.27, 0.000, 0.000, 0.000, 23:56:51.914, 1547020611914
1, -187.83, -190.29, -162.02, -213.76, 0.000, 0.000, 0.000, 23:56:51.928, 1547020611928
2, -182.28, -187.88, -152.74, -198.70, 0.000, 0.000, 0.000, 23:56:51.928, 1547020611928
3, -176.90, -183.30, -148.83, -198.35, 0.000, 0.000, 0.000, 23:56:51.943, 1547020611943
4, -189.46, -196.38, -153.93, -213.45, 0.000, 0.000, 0.000, 23:56:51.943, 1547020611943
5, -190.50, -194.62, -149.60, -206.35, 0.000, 0.000, 0.000, 23:56:51.943, 1547020611943
6, -176.92, -188.17, -144.03, -209.80, 0.000, 0.000, 0.000, 23:56:51.943, 1547020611943
7, -179.83, -189.81, -144.57, -202.99, 0.000, 0.000, 0.000, 23:56:51.958, 1547020611958
8, -183.44, -191.30, -156.01, -212.11, 0.000, 0.000, 0.000, 23:56:51.958, 1547020611958
9, -184.55, -197.25, -143.97, -207.67, 0.000, 0.000, 0.000, 23:56:51.973, 1547020611973
10, -176.19, -187.61, -135.85, -199.41, 0.000, 0.000, 0.000, 23:56:51.973, 1547020611973
11, -186.09, -194.51, -162.91, -212.71, 0.000, 0.000, 0.000, 23:56:51.973, 1547020611973
12, -185.30, -194.36, -160.61, -207.81, 0.000, 0.000, 0.000, 23:56:51.973, 1547020611973
13, -187.30, -190.74, -153.99, -212.04, 0.000, 0.000, 0.000, 23:56:51.988, 1547020611988
14, -181.43, -195.52, -154.81, -209.98, 0.000, 0.000, 0.000, 23:56:51.988, 1547020611988
15, -181.86, -190.96, -158.30, -202.82, 0.000, 0.000, 0.000, 23:56:52.002, 1547020612002
16, -179.62, -188.88, -149.71, -207.01, 0.000, 0.000, 0.000, 23:56:52.002, 1547020612002
17, -184.19, -192.11, -141.43, -207.23, 0.000, 0.000, 0.000, 23:56:52.003, 1547020612003
18, -182.17, -194.72, -154.58, -205.72, 0.000, 0.000, 0.000, 23:56:52.003, 1547020612003
19, -182.65, -189.76, -144.08, -202.94, 0.000, 0.000, 0.000, 23:56:52.018, 1547020612018
20, -182.03, -190.70, -163.85, -207.73, 0.000, 0.000, 0.000, 23:56:52.018, 1547020612018
21, -182.86, -193.11, -154.91, -205.34, 0.000, 0.000, 0.000, 23:56:52.032, 1547020612032
22, -185.04, -191.41, -155.17, -201.63, 0.000, 0.000, 0.000, 23:56:52.032, 1547020612032
23, -188.17, -197.22, -154.61, -205.54, 0.000, 0.000, 0.000, 23:56:52.033, 1547020612033
24, -191.69, -195.99, -154.53, -203.03, 0.000, 0.000, 0.000, 23:56:52.033, 1547020612033
25, -190.10, -195.58, -143.85, -202.25, 0.000, 0.000, 0.000, 23:56:52.048, 1547020612048
26, -177.43, -190.09, -142.12, -200.87, 0.000, 0.000, 0.000, 23:56:52.048, 1547020612048
27, -188.99, -199.68, -155.77, -201.63, 0.000, 0.000, 0.000, 23:56:52.063, 1547020612063
28, -201.75, -201.60, -175.13, -219.11, 0.000, 0.000, 0.000, 23:56:52.063, 1547020612063
29, -181.43, -188.06, -153.69, -211.89, 0.000, 0.000, 0.000, 23:56:52.063, 1547020612063
30, -174.06, -189.85, -145.79, -210.58, 0.000, 0.000, 0.000, 23:56:52.063, 1547020612063
31, -183.90, -196.24, -153.37, -216.48, 0.000, 0.000, 0.000, 23:56:52.078, 1547020612078
32, -191.02, -197.81, -166.55, -222.94, 0.000, 0.000, 0.000, 23:56:52.078, 1547020612078
33, -189.39, -197.07, -156.24, -217.19, 0.000, 0.000, 0.000, 23:56:52.093, 1547020612093
34, -181.16, -190.00, -156.65, -213.96, 0.000, 0.000, 0.000, 23:56:52.093, 1547020612093
35, -189.32, -191.88, -161.59, -213.71, 0.000, 0.000, 0.000, 23:56:52.095, 1547020612095
36, -186.58, -189.07, -158.24, -206.78, 0.000, 0.000, 0.000, 23:56:52.095, 1547020612095
37, -183.85, -192.41, -162.24, -213.28, 0.000, 0.000, 0.000, 23:56:52.108, 1547020612108
38, -183.90, -193.76, -169.72, -216.64, 0.000, 0.000, 0.000, 23:56:52.108, 1547020612108
39, -185.39, -192.46, -159.07, -210.05, 0.000, 0.000, 0.000, 23:56:52.123, 1547020612123
40, -188.07, -190.94, -153.34, -212.24, 0.000, 0.000, 0.000, 23:56:52.123, 1547020612123
41, -187.14, -187.92, -148.30, -210.26, 0.000, 0.000, 0.000, 23:56:52.124, 1547020612124
42, -181.83, -196.93, -160.17, -214.88, 0.000, 0.000, 0.000, 23:56:52.124, 1547020612124
43, -183.26, -194.12, -152.60, -205.83, 0.000, 0.000, 0.000, 23:56:52.138, 1547020612138
44, -192.23, -200.81, -163.17, -218.64, 0.000, 0.000, 0.000, 23:56:52.138, 1547020612138
45, -180.74, -192.10, -165.94, -212.59, 0.000, 0.000, 0.000, 23:56:52.153, 1547020612153
46, -181.99, -194.51, -158.60, -206.12, 0.000, 0.000, 0.000, 23:56:52.153, 1547020612153
47, -186.09, -191.99, -163.05, -209.34, 0.000, 0.000, 0.000, 23:56:52.153, 1547020612153
48, -182.76, -185.41, -152.69, -207.84, 0.000, 0.000, 0.000, 23:56:52.153, 1547020612153
49, -185.11, -192.26, -154.67, -215.06, 0.000, 0.000, 0.000, 23:56:52.168, 1547020612168
50, -183.62, -190.92, -147.67, -211.83, 0.000, 0.000, 0.000, 23:56:52.168, 1547020612168
51, -180.80, -184.42, -143.82, -199.69, 0.000, 0.000, 0.000, 23:56:52.183, 1547020612183
52, -184.44, -193.71, -159.27, -210.08, 0.000, 0.000, 0.000, 23:56:52.183, 1547020612183
53, -180.13, -190.42, -149.06, -210.64, 0.000, 0.000, 0.000, 23:56:52.183, 1547020612183
54, -184.62, -191.39, -145.26, -209.31, 0.000, 0.000, 0.000, 23:56:52.183, 1547020612183
55, -179.04, -187.56, -148.85, -206.91, 0.000, 0.000, 0.000, 23:56:52.198, 1547020612198
56, -183.69, -192.15, -153.59, -202.93, 0.000, 0.000, 0.000, 23:56:52.198, 1547020612198
57, -183.62, -191.43, -159.27, -204.73, 0.000, 0.000, 0.000, 23:56:52.213, 1547020612213
58, -180.61, -186.31, -148.64, -200.99, 0.000, 0.000, 0.000, 23:56:52.213, 1547020612213
59, -185.67, -191.22, -149.51, -202.79, 0.000, 0.000, 0.000, 23:56:52.213, 1547020612213
60, -189.30, -194.93, -147.07, -203.52, 0.000, 0.000, 0.000, 23:56:52.213, 1547020612213
61, -179.48, -190.40, -149.76, -210.86, 0.000, 0.000, 0.000, 23:56:52.228, 1547020612228
62, -176.39, -189.27, -144.64, -208.45, 0.000, 0.000, 0.000, 23:56:52.228, 1547020612228
63, -177.62, -190.55, -154.59, -206.33, 0.000, 0.000, 0.000, 23:56:52.242, 1547020612242
64, -176.41, -184.75, -146.17, -203.98, 0.000, 0.000, 0.000, 23:56:52.242, 1547020612242
65, -181.25, -193.02, -148.12, -209.15, 0.000, 0.000, 0.000, 23:56:52.243, 1547020612243
66, -174.31, -186.45, -143.24, -206.18, 0.000, 0.000, 0.000, 23:56:52.243, 1547020612243
67, -185.14, -192.48, -157.17, -212.98, 0.000, 0.000, 0.000, 23:56:52.258, 1547020612258
68, -189.38, -191.58, -162.71, -218.15, 0.000, 0.000, 0.000, 23:56:52.258, 1547020612258
69, -185.83, -195.21, -149.96, -213.57, 0.000, 0.000, 0.000, 23:56:52.272, 1547020612272
70, -180.02, -187.45, -150.27, -205.74, 0.000, 0.000, 0.000, 23:56:52.272, 1547020612272
71, -186.07, -196.17, -152.60, -198.19, 0.000, 0.000, 0.000, 23:56:52.273, 1547020612273
72, -184.78, -194.06, -151.29, -198.20, 0.000, 0.000, 0.000, 23:56:52.273, 1547020612273
73, -188.57, -191.55, -135.28, -195.01, 0.000, 0.000, 0.000, 23:56:52.288, 1547020612288
74, -186.69, -195.67, -154.36, -212.95, 0.000, 0.000, 0.000, 23:56:52.288, 1547020612288
75, -192.38, -200.03, -163.34, -215.60, 0.000, 0.000, 0.000, 23:56:52.303, 1547020612303
76, -194.63, -199.55, -167.84, -218.56, 0.000, 0.000, 0.000, 23:56:52.303, 1547020612303
77, -188.06, -194.17, -147.51, -208.02, 0.000, 0.000, 0.000, 23:56:52.304, 1547020612304
78, -179.56, -187.86, -148.99, -208.03, 0.000, 0.000, 0.000, 23:56:52.304, 1547020612304
79, -186.54, -190.54, -153.30, -204.96, 0.000, 0.000, 0.000, 23:56:52.318, 1547020612318
80, -187.81, -196.14, -158.51, -208.58, 0.000, 0.000, 0.000, 23:56:52.318, 1547020612318
81, -183.97, -193.03, -153.39, -216.21, 0.000, 0.000, 0.000, 23:56:52.333, 1547020612333
82, -178.06, -188.01, -148.42, -213.86, 0.000, 0.000, 0.000, 23:56:52.333, 1547020612333
83, -176.65, -188.61, -145.37, -201.74, 0.000, 0.000, 0.000, 23:56:52.333, 1547020612333
84, -191.62, -196.19, -150.08, -206.25, 0.000, 0.000, 0.000, 23:56:52.333, 1547020612333
85, -182.86, -195.13, -149.51, -202.94, 0.000, 0.000, 0.000, 23:56:52.347, 1547020612347
86, -178.84, -191.08, -141.11, -199.00, 0.000, 0.000, 0.000, 23:56:52.347, 1547020612347
87, -187.60, -194.61, -153.56, -201.93, 0.000, 0.000, 0.000, 23:56:52.363, 1547020612363
88, -194.76, -198.00, -149.86, -203.32, 0.000, 0.000, 0.000, 23:56:52.363, 1547020612363
89, -177.49, -190.16, -135.46, -190.09, 0.000, 0.000, 0.000, 23:56:52.363, 1547020612363
90, -180.30, -193.50, -144.49, -198.55, 0.000, 0.000, 0.000, 23:56:52.363, 1547020612363
91, -172.66, -187.52, -143.82, -198.85, 0.000, 0.000, 0.000, 23:56:52.378, 1547020612378
92, -179.90, -186.21, -140.68, -200.31, 0.000, 0.000, 0.000, 23:56:52.378, 1547020612378
93, -177.33, -187.96, -143.97, -205.77, 0.000, 0.000, 0.000, 23:56:52.393, 1547020612393
94, -178.34, -185.26, -161.67, -212.10, 0.000, 0.000, 0.000, 23:56:52.393, 1547020612393
95, -178.53, -182.91, -150.20, -201.41, 0.000, 0.000, 0.000, 23:56:52.394, 1547020612394
96, -180.32, -190.58, -151.43, -209.52, 0.000, 0.000, 0.000, 23:56:52.394, 1547020612394
97, -177.14, -191.11, -142.32, -201.47, 0.000, 0.000, 0.000, 23:56:52.408, 1547020612408
98, -180.29, -188.50, -143.41, -202.59, 0.000, 0.000, 0.000, 23:56:52.408, 1547020612408
99, -175.21, -188.85, -141.82, -196.92, 0.000, 0.000, 0.000, 23:56:52.423, 1547020612423
100, -178.00, -187.89, -156.49, -203.79, 0.000, 0.000, 0.000, 23:56:52.423, 1547020612423
101, -174.14, -181.07, -152.75, -203.42, 0.000, 0.000, 0.000, 23:56:52.423, 1547020612423
102, -176.05, -183.97, -138.15, -202.66, 0.000, 0.000, 0.000, 23:56:52.423, 1547020612423
103, -169.60, -179.31, -131.12, -197.34, 0.000, 0.000, 0.000, 23:56:52.444, 1547020612444
104, -175.52, -187.00, -157.98, -209.57, 0.000, 0.000, 0.000, 23:56:52.444, 1547020612444
105, -178.05, -188.41, -163.92, -209.98, 0.000, 0.000, 0.000, 23:56:52.453, 1547020612453
106, -176.84, -182.08, -151.77, -206.92, 0.000, 0.000, 0.000, 23:56:52.453, 1547020612453
107, -170.83, -183.43, -149.84, -206.40, 0.000, 0.000, 0.000, 23:56:52.453, 1547020612453
108, -174.03, -183.63, -141.79, -203.71, 0.000, 0.000, 0.000, 23:56:52.453, 1547020612453
109, -176.37, -184.68, -147.23, -208.66, 0.000, 0.000, 0.000, 23:56:52.467, 1547020612467
110, -176.59, -188.87, -162.75, -211.23, 0.000, 0.000, 0.000, 23:56:52.467, 1547020612467
111, -175.34, -183.35, -152.96, -197.67, 0.000, 0.000, 0.000, 23:56:52.483, 1547020612483
112, -185.29, -193.08, -156.14, -203.16, 0.000, 0.000, 0.000, 23:56:52.483, 1547020612483
113, -182.46, -193.21, -156.41, -208.90, 0.000, 0.000, 0.000, 23:56:52.483, 1547020612483
114, -186.59, -195.06, -150.85, -201.59, 0.000, 0.000, 0.000, 23:56:52.483, 1547020612483
115, -182.29, -190.01, -152.11, -202.22, 0.000, 0.000, 0.000, 23:56:52.498, 1547020612498
116, -186.55, -188.76, -158.26, -208.80, 0.000, 0.000, 0.000, 23:56:52.498, 1547020612498
117, -180.07, -187.56, -145.05, -201.68, 0.000, 0.000, 0.000, 23:56:52.513, 1547020612513
118, -185.98, -192.29, -144.18, -202.82, 0.000, 0.000, 0.000, 23:56:52.513, 1547020612513
119, -179.14, -192.63, -149.41, -206.58, 0.000, 0.000, 0.000, 23:56:52.513, 1547020612513
120, -188.14, -191.80, -157.35, -210.44, 0.000, 0.000, 0.000, 23:56:52.513, 1547020612513
121, -187.71, -192.89, -149.74, -210.26, 0.000, 0.000, 0.000, 23:56:52.528, 1547020612528
122, -181.51, -190.52, -145.67, -206.00, 0.000, 0.000, 0.000, 23:56:52.528, 1547020612528
123, -185.37, -191.36, -150.27, -207.53, 0.000, 0.000, 0.000, 23:56:52.543, 1547020612543
124, -188.60, -195.41, -157.61, -206.08, 0.000, 0.000, 0.000, 23:56:52.543, 1547020612543
125, -183.25, -190.05, -148.72, -203.86, 0.000, 0.000, 0.000, 23:56:52.543, 1547020612543
126, -185.86, -198.35, -155.18, -213.71, 0.000, 0.000, 0.000, 23:56:52.543, 1547020612543
127, -183.34, -192.59, -145.74, -207.71, 0.000, 0.000, 0.000, 23:56:52.558, 1547020612558
128, -186.05, -192.49, -159.85, -216.76, 0.000, 0.000, 0.000, 23:56:52.558, 1547020612558
129, -186.62, -194.22, -156.54, -211.24, 0.000, 0.000, 0.000, 23:56:52.573, 1547020612573
130, -183.01, -194.32, -154.97, -205.33, 0.000, 0.000, 0.000, 23:56:52.573, 1547020612573
131, -181.30, -192.68, -148.18, -205.49, 0.000, 0.000, 0.000, 23:56:52.573, 1547020612573
132, -186.30, -192.79, -143.76, -196.59, 0.000, 0.000, 0.000, 23:56:52.573, 1547020612573
