%OpenBCI Raw EEG Data
%
%Sample Rate = 200.0 Hz
%First Column = SampleIndex
%Last Column = Timestamp 
%Other Columns = EEG data in microvolts followed by Accel Data (in G) interleaved with Aux Data
0, -444.68, -24.02, 258.67, -3442.88, 0.000, 0.000, 0.000, 17:47:06.578
1, -480.17, -50.05, 253.42, -3350.60, 0.000, 0.000, 0.000, 17:47:06.593
2, -528.79, -79.70, 270.43, -3284.74, 0.000, 0.000, 0.000, 17:47:06.593
3, -490.02, -47.02, 281.45, -3331.83, 0.000, 0.000, 0.000, 17:47:06.608
4, -446.77, -29.40, 267.39, -3457.94, 0.000, 0.000, 0.000, 17:47:06.608
5, -480.89, -52.50, 249.31, -3407.55, 0.000, 0.000, 0.000, 17:47:06.608
6, -517.60, -70.08, 269.23, -3272.16, 0.000, 0.000, 0.000, 17:47:06.608
7, -487.33, -45.16, 279.12, -3377.40, 0.000, 0.000, 0.000, 17:47:06.637
8, -457.75, -36.21, 267.06, -3539.79, 0.000, 0.000, 0.000, 17:47:06.638
9, -478.28, -52.06, 250.13, -3372.88, 0.000, 0.000, 0.000, 17:47:06.638
10, -527.46, -77.63, 256.45, -3280.16, 0.000, 0.000, 0.000, 17:47:06.638
11, -485.28, -42.53, 275.34, -3350.65, 0.000, 0.000, 0.000, 17:47:06.639
12, -442.83, -22.18, 265.94, -3422.50, 0.000, 0.000, 0.000, 17:47:06.639
13, -474.71, -48.64, 249.80, -3357.77, 0.000, 0.000, 0.000, 17:47:06.653
14, -531.22, -77.59, 280.30, -3397.18, 0.000, 0.000, 0.000, 17:47:06.653
15, -494.04, -59.88, 266.82, -3332.66, 0.000, 0.000, 0.000, 17:47:06.668
16, -448.26, -33.74, 265.29, -3427.30, 0.000, 0.000, 0.000, 17:47:06.668
17, -470.95, -47.10, 242.10, -3381.45, 0.000, 0.000, 0.000, 17:47:06.668
18, -524.06, -81.25, 268.64, -3260.29, 0.000, 0.000, 0.000, 17:47:06.668
19, -495.02, -59.23, 272.55, -3381.51, 0.000, 0.000, 0.000, 17:47:06.683
20, -454.01, -36.57, 252.87, -3483.52, 0.000, 0.000, 0.000, 17:47:06.683
21, -476.69, -58.76, 239.42, -3339.26, 0.000, 0.000, 0.000, 17:47:06.698
22, -523.32, -78.83, 248.15, -3245.00, 0.000, 0.000, 0.000, 17:47:06.698
23, -493.91, -55.73, 258.71, -3364.88, 0.000, 0.000, 0.000, 17:47:06.698
24, -446.79, -32.92, 241.52, -3451.46, 0.000, 0.000, 0.000, 17:47:06.698
25, -473.24, -54.28, 237.22, -3384.91, 0.000, 0.000, 0.000, 17:47:06.713
26, -534.87, -84.36, 264.23, -3328.83, 0.000, 0.000, 0.000, 17:47:06.713
27, -493.32, -61.85, 273.95, -3310.57, 0.000, 0.000, 0.000, 17:47:06.727
28, -453.63, -40.37, 243.33, -3435.23, 0.000, 0.000, 0.000, 17:47:06.728
29, -483.56, -57.69, 243.20, -3403.04, 0.000, 0.000, 0.000, 17:47:06.728
30, -527.53, -84.09, 254.89, -3222.15, 0.000, 0.000, 0.000, 17:47:06.728
31, -503.01, -66.32, 268.21, -3332.60, 0.000, 0.000, 0.000, 17:47:06.743
32, -452.41, -26.99, 281.30, -3508.39, 0.000, 0.000, 0.000, 17:47:06.743
33, -489.89, -60.42, 244.36, -3388.94, 0.000, 0.000, 0.000, 17:47:06.758
34, -526.76, -79.52, 269.51, -3268.01, 0.000, 0.000, 0.000, 17:47:06.758
35, -497.70, -55.88, 267.80, -3393.42, 0.000, 0.000, 0.000, 17:47:06.758
36, -459.55, -43.36, 239.65, -3405.84, 0.000, 0.000, 0.000, 17:47:06.758
37, -483.08, -55.99, 235.84, -3340.10, 0.000, 0.000, 0.000, 17:47:06.773
38, -524.15, -76.45, 262.47, -3318.77, 0.000, 0.000, 0.000, 17:47:06.773
39, -490.29, -50.39, 270.30, -3329.40, 0.000, 0.000, 0.000, 17:47:06.787
40, -452.93, -32.65, 250.70, -3412.93, 0.000, 0.000, 0.000, 17:47:06.788
41, -477.68, -51.30, 226.51, -3377.21, 0.000, 0.000, 0.000, 17:47:06.788
42, -522.10, -76.97, 243.07, -3225.88, 0.000, 0.000, 0.000, 17:47:06.788
43, -488.63, -47.66, 262.32, -3321.85, 0.000, 0.000, 0.000, 17:47:06.803
44, -437.04, -18.55, 258.58, -3444.72, 0.000, 0.000, 0.000, 17:47:06.803
45, -479.19, -53.25, 240.68, -3332.93, 0.000, 0.000, 0.000, 17:47:06.817
46, -519.92, -73.59, 251.74, -3215.09, 0.000, 0.000, 0.000, 17:47:06.818
47, -485.74, -43.58, 286.98, -3312.52, 0.000, 0.000, 0.000, 17:47:06.818
48, -431.08, -19.91, 255.73, -3382.41, 0.000, 0.000, 0.000, 17:47:06.818
49, -464.21, -42.90, 256.86, -3316.34, 0.000, 0.000, 0.000, 17:47:06.833
50, -526.44, -72.93, 255.58, -3298.76, 0.000, 0.000, 0.000, 17:47:06.833
51, -482.88, -44.87, 268.12, -3334.52, 0.000, 0.000, 0.000, 17:47:06.848
52, -444.03, -26.37, 239.68, -3418.69, 0.000, 0.000, 0.000, 17:47:06.848
53, -466.12, -42.43, 248.54, -3390.03, 0.000, 0.000, 0.000, 17:47:06.848
54, -506.28, -64.12, 266.63, -3224.25, 0.000, 0.000, 0.000, 17:47:06.848
55, -494.18, -55.27, 270.35, -3342.78, 0.000, 0.000, 0.000, 17:47:06.863
56, -447.39, -30.07, 256.86, -3477.98, 0.000, 0.000, 0.000, 17:47:06.865
57, -459.65, -43.32, 241.83, -3312.33, 0.000, 0.000, 0.000, 17:47:06.878
58, -512.32, -74.92, 262.00, -3242.01, 0.000, 0.000, 0.000, 17:47:06.878
59, -479.17, -46.45, 285.22, -3348.43, 0.000, 0.000, 0.000, 17:47:06.878
60, -431.28, -22.86, 240.66, -3376.87, 0.000, 0.000, 0.000, 17:47:06.878
61, -475.52, -54.99, 229.47, -3372.25, 0.000, 0.000, 0.000, 17:47:06.893
62, -524.34, -78.17, 257.08, -3311.72, 0.000, 0.000, 0.000, 17:47:06.893
63, -486.27, -54.28, 272.81, -3292.21, 0.000, 0.000, 0.000, 17:47:06.908
64, -435.44, -22.36, 262.52, -3419.20, 0.000, 0.000, 0.000, 17:47:06.908
65, -471.98, -54.54, 253.32, -3382.33, 0.000, 0.000, 0.000, 17:47:06.908
66, -528.64, -86.24, 252.01, -3257.05, 0.000, 0.000, 0.000, 17:47:06.908
67, -487.54, -62.19, 277.88, -3319.17, 0.000, 0.000, 0.000, 17:47:06.923
68, -451.03, -39.44, 270.23, -3460.72, 0.000, 0.000, 0.000, 17:47:06.923
69, -475.68, -52.37, 246.02, -3384.32, 0.000, 0.000, 0.000, 17:47:06.937
70, -529.46, -86.49, 255.53, -3312.46, 0.000, 0.000, 0.000, 17:47:06.938
71, -506.36, -62.78, 276.33, -3410.36, 0.000, 0.000, 0.000, 17:47:06.938
72, -453.50, -29.43, 245.90, -3447.89, 0.000, 0.000, 0.000, 17:47:06.938
73, -477.82, -53.35, 233.67, -3393.48, 0.000, 0.000, 0.000, 17:47:06.953
74, -533.61, -83.52, 261.56, -3353.94, 0.000, 0.000, 0.000, 17:47:06.953
75, -489.90, -50.62, 279.86, -3373.53, 0.000, 0.000, 0.000, 17:47:06.968
76, -447.32, -31.14, 264.09, -3487.46, 0.000, 0.000, 0.000, 17:47:06.968
77, -485.81, -62.42, 237.39, -3463.52, 0.000, 0.000, 0.000, 17:47:06.968
78, -521.51, -77.14, 262.51, -3239.71, 0.000, 0.000, 0.000, 17:47:06.968
79, -494.57, -55.57, 272.89, -3343.18, 0.000, 0.000, 0.000, 17:47:06.983
80, -455.55, -37.07, 265.62, -3503.46, 0.000, 0.000, 0.000, 17:47:06.983
81, -470.53, -53.60, 235.68, -3373.54, 0.000, 0.000, 0.000, 17:47:06.997
82, -525.32, -87.01, 263.74, -3250.64, 0.000, 0.000, 0.000, 17:47:06.998
83, -498.57, -63.20, 286.47, -3357.82, 0.000, 0.000, 0.000, 17:47:06.998
84, -450.48, -48.07, 243.94, -3421.09, 0.000, 0.000, 0.000, 17:47:06.998
85, -476.39, -59.64, 240.42, -3375.98, 0.000, 0.000, 0.000, 17:47:07.013
86, -526.63, -81.44, 276.38, -3307.78, 0.000, 0.000, 0.000, 17:47:07.013
87, -489.49, -55.30, 269.53, -3276.81, 0.000, 0.000, 0.000, 17:47:07.027
88, -449.13, -40.95, 253.94, -3433.42, 0.000, 0.000, 0.000, 17:47:07.028
89, -482.03, -62.31, 246.83, -3374.99, 0.000, 0.000, 0.000, 17:47:07.028
90, -520.54, -81.60, 260.69, -3229.83, 0.000, 0.000, 0.000, 17:47:07.028
91, -495.59, -57.18, 274.14, -3336.26, 0.000, 0.000, 0.000, 17:47:07.042
92, -453.00, -32.77, 265.72, -3480.24, 0.000, 0.000, 0.000, 17:47:07.043
93, -482.54, -61.12, 221.70, -3357.51, 0.000, 0.000, 0.000, 17:47:07.057
94, -523.31, -79.27, 250.03, -3255.35, 0.000, 0.000, 0.000, 17:47:07.058
95, -505.08, -65.73, 265.16, -3371.45, 0.000, 0.000, 0.000, 17:47:07.058
96, -451.35, -32.30, 266.74, -3418.29, 0.000, 0.000, 0.000, 17:47:07.058
97, -474.68, -46.30, 255.48, -3375.18, 0.000, 0.000, 0.000, 17:47:07.073
98, -527.82, -79.57, 261.85, -3344.08, 0.000, 0.000, 0.000, 17:47:07.073
99, -496.95, -65.66, 275.12, -3331.00, 0.000, 0.000, 0.000, 17:47:07.087
100, -448.19, -38.46, 253.33, -3452.44, 0.000, 0.000, 0.000, 17:47:07.087
101, -479.25, -59.46, 237.68, -3361.56, 0.000, 0.000, 0.000, 17:47:07.088
102, -524.21, -77.16, 256.56, -3249.92, 0.000, 0.000, 0.000, 17:47:07.088
103, -492.01, -53.85, 295.91, -3317.96, 0.000, 0.000, 0.000, 17:47:07.103
104, -461.40, -40.64, 250.93, -3504.10, 0.000, 0.000, 0.000, 17:47:07.103
105, -482.68, -61.33, 234.41, -3377.16, 0.000, 0.000, 0.000, 17:47:07.118
106, -539.47, -93.87, 247.42, -3289.67, 0.000, 0.000, 0.000, 17:47:07.118
107, -505.13, -58.20, 273.95, -3391.19, 0.000, 0.000, 0.000, 17:47:07.119
108, -444.28, -28.16, 273.15, -3434.25, 0.000, 0.000, 0.000, 17:47:07.119
109, -477.55, -54.28, 245.60, -3379.97, 0.000, 0.000, 0.000, 17:47:07.133
110, -539.26, -84.03, 255.66, -3324.87, 0.000, 0.000, 0.000, 17:47:07.133
111, -502.27, -64.81, 268.21, -3332.31, 0.000, 0.000, 0.000, 17:47:07.147
112, -453.77, -35.82, 260.14, -3426.08, 0.000, 0.000, 0.000, 17:47:07.148
113, -480.25, -55.63, 243.51, -3401.56, 0.000, 0.000, 0.000, 17:47:07.148
114, -530.27, -83.33, 259.62, -3243.61, 0.000, 0.000, 0.000, 17:47:07.148
115, -508.91, -63.29, 271.55, -3355.72, 0.000, 0.000, 0.000, 17:47:07.163
116, -450.96, -32.25, 264.42, -3477.05, 0.000, 0.000, 0.000, 17:47:07.163
117, -478.28, -55.52, 234.20, -3336.69, 0.000, 0.000, 0.000, 17:47:07.178
118, -519.72, -73.98, 258.12, -3226.58, 0.000, 0.000, 0.000, 17:47:07.178
119, -503.44, -63.57, 264.88, -3390.31, 0.000, 0.000, 0.000, 17:47:07.178
120, -445.99, -26.92, 261.34, -3434.71, 0.000, 0.000, 0.000, 17:47:07.178
121, -471.37, -52.66, 253.22, -3379.44, 0.000, 0.000, 0.000, 17:47:07.193
122, -531.16, -79.27, 257.31, -3349.14, 0.000, 0.000, 0.000, 17:47:07.193
123, -498.45, -61.54, 272.02, -3320.24, 0.000, 0.000, 0.000, 17:47:07.208
124, -451.83, -34.47, 258.35, -3490.24, 0.000, 0.000, 0.000, 17:47:07.208
125, -474.44, -50.98, 252.67, -3426.92, 0.000, 0.000, 0.000, 17:47:07.208
126, -521.66, -75.72, 280.40, -3250.02, 0.000, 0.000, 0.000, 17:47:07.208
127, -496.76, -55.53, 269.82, -3318.11, 0.000, 0.000, 0.000, 17:47:07.223
128, -450.15, -30.37, 263.84, -3459.15, 0.000, 0.000, 0.000, 17:47:07.223
129, -469.82, -52.47, 238.47, -3363.36, 0.000, 0.000, 0.000, 17:47:07.237
130, -521.89, -80.72, 257.89, -3275.20, 0.000, 0.000, 0.000, 17:47:07.238
131, -493.63, -53.19, 282.21, -3379.10, 0.000, 0.000, 0.000, 17:47:07.238
132, -442.51, -33.50, 253.15, -3424.73, 0.000, 0.000, 0.000, 17:47:07.238
133, -470.93, -51.72, 241.87, -3363.97, 0.000, 0.000, 0.000, 17:47:07.253
134, -523.86, -77.97, 260.41, -3343.76, 0.000, 0.000, 0.000, 17:47:07.253
135, -485.38, -49.13, 275.32, -3319.11, 0.000, 0.000, 0.000, 17:47:07.283
136, -427.46, -22.24, 252.14, -3393.68, 0.000, 0.000, 0.000, 17:47:07.283
137, -461.82, -45.02, 241.89, -3385.03, 0.000, 0.000, 0.000, 17:47:07.283
138, -495.85, -50.87, 259.30, -3199.64, 0.000, 0.000, 0.000, 17:47:07.283
139, -476.70, -38.37, 260.79, -3315.01, 0.000, 0.000, 0.000, 17:47:07.284
140, -425.70, -8.88, 249.99, -3465.08, 0.000, 0.000, 0.000, 17:47:07.284
141, -448.68, -24.53, 231.25, -3339.72, 0.000, 0.000, 0.000, 17:47:07.284
142, -486.73, -43.90, 260.34, -3252.97, 0.000, 0.000, 0.000, 17:47:07.284
143, -475.26, -19.02, 294.98, -3500.40, 0.000, 0.000, 0.000, 17:47:07.298
144, -388.82, 27.77, 268.95, -3397.66, 0.000, 0.000, 0.000, 17:47:07.298
145, -413.11, 9.37, 251.75, -3341.68, 0.000, 0.000, 0.000, 17:47:07.313
146, -452.60, -7.19, 266.63, -3271.81, 0.000, 0.000, 0.000, 17:47:07.313
147, -405.82, 26.74, 292.10, -3262.34, 0.000, 0.000, 0.000, 17:47:07.327
148, -344.78, 62.83, 263.42, -3421.70, 0.000, 0.000, 0.000, 17:47:07.327
149, -363.00, 65.68, 240.80, -3394.57, 0.000, 0.000, 0.000, 17:47:07.328
150, -386.52, 58.12, 265.73, -3198.57, 0.000, 0.000, 0.000, 17:47:07.328
151, -344.10, 86.30, 271.12, -3286.55, 0.000, 0.000, 0.000, 17:47:07.343
152, -280.58, 121.57, 264.50, -3414.51, 0.000, 0.000, 0.000, 17:47:07.343
153, -299.98, 108.63, 234.95, -3322.55, 0.000, 0.000, 0.000, 17:47:07.358
154, -363.45, 77.78, 258.03, -3211.81, 0.000, 0.000, 0.000, 17:47:07.358
155, -351.41, 85.65, 278.27, -3293.06, 0.000, 0.000, 0.000, 17:47:07.358
156, -323.28, 83.74, 254.26, -3394.92, 0.000, 0.000, 0.000, 17:47:07.358
157, -346.06, 63.37, 243.42, -3329.55, 0.000, 0.000, 0.000, 17:47:07.373
158, -426.42, 8.22, 276.22, -3327.29, 0.000, 0.000, 0.000, 17:47:07.373
159, -414.99, 17.98, 272.13, -3294.71, 0.000, 0.000, 0.000, 17:47:07.388
160, -402.77, 16.33, 238.66, -3436.71, 0.000, 0.000, 0.000, 17:47:07.388
161, -436.00, -17.32, 237.27, -3408.18, 0.000, 0.000, 0.000, 17:47:07.388
162, -490.83, -48.33, 252.73, -3250.20, 0.000, 0.000, 0.000, 17:47:07.388
163, -483.02, -51.07, 276.86, -3319.85, 0.000, 0.000, 0.000, 17:47:07.403
164, -464.18, -44.85, 265.70, -3516.16, 0.000, 0.000, 0.000, 17:47:07.403
165, -482.99, -63.00, 247.44, -3353.68, 0.000, 0.000, 0.000, 17:47:07.417
166, -543.26, -105.30, 243.85, -3277.90, 0.000, 0.000, 0.000, 17:47:07.418
167, -532.23, -92.48, 261.18, -3374.97, 0.000, 0.000, 0.000, 17:47:07.418
168, -487.61, -73.95, 237.10, -3426.89, 0.000, 0.000, 0.000, 17:47:07.418
169, -518.63, -102.62, 221.19, -3404.29, 0.000, 0.000, 0.000, 17:47:07.433
170, -578.62, -126.01, 260.53, -3378.60, 0.000, 0.000, 0.000, 17:47:07.433
171, -551.84, -110.28, 268.85, -3336.66, 0.000, 0.000, 0.000, 17:47:07.447
172, -511.93, -98.89, 232.59, -3455.45, 0.000, 0.000, 0.000, 17:47:07.448
173, -531.50, -109.25, 238.01, -3434.41, 0.000, 0.000, 0.000, 17:47:07.448
174, -579.39, -134.24, 244.52, -3250.32, 0.000, 0.000, 0.000, 17:47:07.448
175, -557.65, -115.04, 273.26, -3332.61, 0.000, 0.000, 0.000, 17:47:07.463
176, -518.92, -94.54, 259.46, -3522.42, 0.000, 0.000, 0.000, 17:47:07.463
177, -531.99, -111.48, 234.62, -3398.02, 0.000, 0.000, 0.000, 17:47:07.478
178, -580.28, -131.06, 246.99, -3266.25, 0.000, 0.000, 0.000, 17:47:07.478
179, -563.52, -122.61, 254.45, -3312.86, 0.000, 0.000, 0.000, 17:47:07.478
180, -494.28, -84.91, 241.47, -3405.52, 0.000, 0.000, 0.000, 17:47:07.478
181, -518.06, -98.73, 242.47, -3387.67, 0.000, 0.000, 0.000, 17:47:07.493
182, -571.01, -120.33, 259.14, -3326.68, 0.000, 0.000, 0.000, 17:47:07.493
183, -555.54, -104.50, 264.16, -3332.33, 0.000, 0.000, 0.000, 17:47:07.507
184, -507.86, -85.15, 250.12, -3464.48, 0.000, 0.000, 0.000, 17:47:07.508
185, -530.53, -101.05, 236.95, -3421.48, 0.000, 0.000, 0.000, 17:47:07.508
186, -562.72, -116.90, 261.91, -3251.42, 0.000, 0.000, 0.000, 17:47:07.508
187, -552.42, -106.13, 277.46, -3319.98, 0.000, 0.000, 0.000, 17:47:07.523
188, -490.68, -71.24, 254.65, -3464.39, 0.000, 0.000, 0.000, 17:47:07.523
189, -515.11, -92.77, 233.82, -3378.95, 0.000, 0.000, 0.000, 17:47:07.538
190, -563.03, -116.72, 259.48, -3246.69, 0.000, 0.000, 0.000, 17:47:07.538
191, -552.77, -104.27, 272.25, -3354.23, 0.000, 0.000, 0.000, 17:47:07.538
192, -486.99, -75.07, 249.89, -3411.53, 0.000, 0.000, 0.000, 17:47:07.539
193, -501.33, -82.33, 247.07, -3371.83, 0.000, 0.000, 0.000, 17:47:07.553
194, -555.25, -115.53, 247.92, -3348.96, 0.000, 0.000, 0.000, 17:47:07.553
195, -528.14, -91.00, 272.08, -3281.43, 0.000, 0.000, 0.000, 17:47:07.567
196, -473.01, -64.45, 258.92, -3411.60, 0.000, 0.000, 0.000, 17:47:07.568
197, -493.71, -78.27, 238.77, -3387.31, 0.000, 0.000, 0.000, 17:47:07.568
198, -543.03, -104.80, 246.84, -3231.07, 0.000, 0.000, 0.000, 17:47:07.568
199, -522.19, -86.19, 275.28, -3327.65, 0.000, 0.000, 0.000, 17:47:07.598
200, -480.12, -60.47, 259.01, -3531.04, 0.000, 0.000, 0.000, 17:47:07.598
0, -488.52, -69.54, 230.32, -3373.50, 0.000, 0.000, 0.000, 17:47:07.598
1, -539.25, -99.08, 257.86, -3285.25, 0.000, 0.000, 0.000, 17:47:07.599
2, -526.30, -81.19, 270.58, -3340.65, 0.000, 0.000, 0.000, 17:47:07.599
3, -474.61, -56.30, 251.15, -3457.82, 0.000, 0.000, 0.000, 17:47:07.600
4, -505.55, -79.72, 229.82, -3432.15, 0.000, 0.000, 0.000, 17:47:07.600
5, -567.49, -112.94, 268.74, -3446.97, 0.000, 0.000, 0.000, 17:47:07.613
6, -522.92, -83.83, 271.99, -3308.06, 0.000, 0.000, 0.000, 17:47:07.613
7, -472.63, -59.32, 256.36, -3441.22, 0.000, 0.000, 0.000, 17:47:07.628
8, -500.24, -75.56, 243.26, -3417.12, 0.000, 0.000, 0.000, 17:47:07.628
9, -546.39, -108.67, 260.34, -3261.49, 0.000, 0.000, 0.000, 17:47:07.643
10, -514.89, -74.98, 282.29, -3295.85, 0.000, 0.000, 0.000, 17:47:07.643
11, -477.53, -59.36, 250.17, -3448.48, 0.000, 0.000, 0.000, 17:47:07.643
12, -479.33, -67.15, 234.36, -3349.89, 0.000, 0.000, 0.000, 17:47:07.643
13, -541.33, -97.72, 250.66, -3259.92, 0.000, 0.000, 0.000, 17:47:07.658
14, -523.23, -79.16, 278.85, -3376.63, 0.000, 0.000, 0.000, 17:47:07.658
15, -461.52, -42.61, 263.45, -3390.68, 0.000, 0.000, 0.000, 17:47:07.673
16, -476.04, -58.47, 233.98, -3331.39, 0.000, 0.000, 0.000, 17:47:07.673
17, -532.13, -91.47, 247.73, -3312.80, 0.000, 0.000, 0.000, 17:47:07.673
18, -501.44, -64.40, 275.55, -3311.29, 0.000, 0.000, 0.000, 17:47:07.673
19, -451.24, -41.34, 264.04, -3446.49, 0.000, 0.000, 0.000, 17:47:07.688
20, -485.14, -64.96, 238.05, -3435.34, 0.000, 0.000, 0.000, 17:47:07.688
21, -517.61, -78.64, 264.00, -3247.30, 0.000, 0.000, 0.000, 17:47:07.703
22, -494.05, -55.37, 264.60, -3303.77, 0.000, 0.000, 0.000, 17:47:07.703
23, -457.16, -39.30, 252.27, -3498.37, 0.000, 0.000, 0.000, 17:47:07.703
24, -462.48, -47.82, 241.58, -3348.48, 0.000, 0.000, 0.000, 17:47:07.703
25, -511.67, -75.04, 262.72, -3200.34, 0.000, 0.000, 0.000, 17:47:07.718
26, -503.14, -63.50, 282.17, -3324.72, 0.000, 0.000, 0.000, 17:47:07.718
27, -450.96, -31.81, 245.76, -3376.76, 0.000, 0.000, 0.000, 17:47:07.733
28, -462.33, -45.56, 242.26, -3365.22, 0.000, 0.000, 0.000, 17:47:07.733
29, -526.89, -83.30, 258.80, -3290.59, 0.000, 0.000, 0.000, 17:47:07.733
30, -506.97, -66.37, 264.33, -3310.78, 0.000, 0.000, 0.000, 17:47:07.733
31, -454.57, -33.88, 263.14, -3451.94, 0.000, 0.000, 0.000, 17:47:07.748
32, -474.00, -49.58, 246.30, -3433.83, 0.000, 0.000, 0.000, 17:47:07.748
33, -524.65, -78.23, 270.85, -3242.05, 0.000, 0.000, 0.000, 17:47:07.763
34, -506.46, -70.23, 262.00, -3354.19, 0.000, 0.000, 0.000, 17:47:07.763
35, -455.83, -38.30, 270.41, -3484.36, 0.000, 0.000, 0.000, 17:47:07.763
36, -474.31, -55.93, 227.88, -3382.50, 0.000, 0.000, 0.000, 17:47:07.763
37, -514.02, -72.40, 254.01, -3279.10, 0.000, 0.000, 0.000, 17:47:07.778
38, -503.10, -64.84, 271.98, -3368.71, 0.000, 0.000, 0.000, 17:47:07.778
39, -449.01, -35.91, 249.49, -3420.80, 0.000, 0.000, 0.000, 17:47:07.792
40, -464.21, -50.96, 243.81, -3384.42, 0.000, 0.000, 0.000, 17:47:07.792
41, -516.01, -72.85, 256.04, -3273.50, 0.000, 0.000, 0.000, 17:47:07.793
42, -501.85, -66.22, 262.81, -3277.43, 0.000, 0.000, 0.000, 17:47:07.793
43, -455.36, -41.05, 242.92, -3426.09, 0.000, 0.000, 0.000, 17:47:07.808
44, -471.60, -52.60, 248.30, -3452.27, 0.000, 0.000, 0.000, 17:47:07.808
45, -526.62, -85.69, 249.85, -3244.92, 0.000, 0.000, 0.000, 17:47:07.823
46, -504.06, -61.89, 266.92, -3287.48, 0.000, 0.000, 0.000, 17:47:07.823
47, -458.03, -35.96, 258.94, -3434.97, 0.000, 0.000, 0.000, 17:47:07.823
48, -466.85, -46.07, 242.36, -3338.07, 0.000, 0.000, 0.000, 17:47:07.823
49, -516.25, -78.95, 260.70, -3238.04, 0.000, 0.000, 0.000, 17:47:07.838
50, -508.24, -68.42, 255.90, -3351.66, 0.000, 0.000, 0.000, 17:47:07.838
51, -462.09, -42.63, 238.87, -3422.81, 0.000, 0.000, 0.000, 17:47:07.853
52, -480.91, -58.88, 232.16, -3379.18, 0.000, 0.000, 0.000, 17:47:07.853
53, -518.84, -76.63, 267.64, -3269.27, 0.000, 0.000, 0.000, 17:47:07.853
54, -502.31, -60.72, 272.46, -3285.05, 0.000, 0.000, 0.000, 17:47:07.853
55, -457.58, -34.84, 243.48, -3441.03, 0.000, 0.000, 0.000, 17:47:07.868
56, -470.01, -46.33, 247.45, -3465.52, 0.000, 0.000, 0.000, 17:47:07.868
57, -521.48, -74.49, 248.16, -3280.72, 0.000, 0.000, 0.000, 17:47:07.882
58, -501.20, -59.91, 263.19, -3323.96, 0.000, 0.000, 0.000, 17:47:07.883
59, -459.94, -38.58, 242.53, -3487.06, 0.000, 0.000, 0.000, 17:47:07.883
60, -466.39, -48.91, 233.74, -3376.05, 0.000, 0.000, 0.000, 17:47:07.883
61, -514.23, -69.97, 266.49, -3272.28, 0.000, 0.000, 0.000, 17:47:07.898
62, -513.97, -68.56, 266.89, -3388.02, 0.000, 0.000, 0.000, 17:47:07.898
63, -457.51, -36.62, 256.80, -3456.87, 0.000, 0.000, 0.000, 17:47:07.913
64, -470.75, -48.27, 246.90, -3376.61, 0.000, 0.000, 0.000, 17:47:07.913
65, -523.57, -81.10, 271.30, -3281.07, 0.000, 0.000, 0.000, 17:47:07.913
66, -504.37, -67.42, 279.83, -3296.98, 0.000, 0.000, 0.000, 17:47:07.913
67, -453.77, -32.97, 268.24, -3432.22, 0.000, 0.000, 0.000, 17:47:07.928
68, -488.12, -57.75, 244.04, -3451.90, 0.000, 0.000, 0.000, 17:47:07.928
69, -521.56, -76.81, 249.20, -3247.60, 0.000, 0.000, 0.000, 17:47:07.943
70, -515.99, -72.15, 269.27, -3326.12, 0.000, 0.000, 0.000, 17:47:07.943
71, -459.96, -40.10, 244.41, -3484.91, 0.000, 0.000, 0.000, 17:47:07.943
72, -467.64, -50.93, 235.50, -3395.17, 0.000, 0.000, 0.000, 17:47:07.943
73, -519.06, -82.05, 243.63, -3275.77, 0.000, 0.000, 0.000, 17:47:07.958
74, -504.23, -64.96, 280.94, -3388.62, 0.000, 0.000, 0.000, 17:47:07.958
75, -451.35, -31.83, 267.45, -3432.23, 0.000, 0.000, 0.000, 17:47:07.972
76, -470.54, -52.84, 229.11, -3416.07, 0.000, 0.000, 0.000, 17:47:07.972
77, -521.47, -74.03, 256.76, -3310.38, 0.000, 0.000, 0.000, 17:47:07.973
78, -504.50, -56.06, 273.15, -3295.67, 0.000, 0.000, 0.000, 17:47:07.973
79, -463.29, -42.91, 248.07, -3442.43, 0.000, 0.000, 0.000, 17:47:07.988
80, -487.93, -63.72, 228.22, -3467.06, 0.000, 0.000, 0.000, 17:47:07.988
81, -515.24, -77.34, 261.46, -3231.86, 0.000, 0.000, 0.000, 17:47:08.003
82, -516.80, -72.41, 249.15, -3345.36, 0.000, 0.000, 0.000, 17:47:08.003
83, -465.57, -45.81, 243.67, -3455.27, 0.000, 0.000, 0.000, 17:47:08.003
84, -467.79, -50.92, 239.49, -3354.91, 0.000, 0.000, 0.000, 17:47:08.003
85, -518.73, -77.78, 258.11, -3261.66, 0.000, 0.000, 0.000, 17:47:08.018
86, -515.40, -65.17, 284.64, -3378.05, 0.000, 0.000, 0.000, 17:47:08.018
87, -456.14, -30.40, 261.64, -3444.14, 0.000, 0.000, 0.000, 17:47:08.033
88, -467.48, -46.59, 238.35, -3379.43, 0.000, 0.000, 0.000, 17:47:08.033
89, -521.79, -73.40, 251.24, -3277.25, 0.000, 0.000, 0.000, 17:47:08.033
90, -497.52, -56.59, 255.49, -3302.65, 0.000, 0.000, 0.000, 17:47:08.033
91, -452.00, -32.01, 254.20, -3400.21, 0.000, 0.000, 0.000, 17:47:08.048
92, -469.11, -44.43, 230.44, -3411.88, 0.000, 0.000, 0.000, 17:47:08.048
93, -508.01, -71.36, 251.92, -3256.54, 0.000, 0.000, 0.000, 17:47:08.063
94, -504.01, -61.56, 272.09, -3313.50, 0.000, 0.000, 0.000, 17:47:08.063
95, -459.52, -34.54, 259.76, -3454.17, 0.000, 0.000, 0.000, 17:47:08.063
96, -465.26, -46.76, 252.17, -3368.34, 0.000, 0.000, 0.000, 17:47:08.063
97, -518.10, -77.03, 255.94, -3260.39, 0.000, 0.000, 0.000, 17:47:08.078
98, -523.84, -76.88, 270.36, -3367.19, 0.000, 0.000, 0.000, 17:47:08.078
99, -450.09, -27.30, 268.59, -3385.02, 0.000, 0.000, 0.000, 17:47:08.093
100, -471.69, -55.07, 225.23, -3359.03, 0.000, 0.000, 0.000, 17:47:08.093
101, -522.64, -76.90, 256.44, -3304.04, 0.000, 0.000, 0.000, 17:47:08.093
102, -508.79, -62.81, 275.78, -3296.80, 0.000, 0.000, 0.000, 17:47:08.093
103, -452.03, -28.39, 268.19, -3425.47, 0.000, 0.000, 0.000, 17:47:08.108
104, -472.76, -47.97, 235.40, -3425.95, 0.000, 0.000, 0.000, 17:47:08.108
105, -511.09, -69.55, 259.93, -3225.26, 0.000, 0.000, 0.000, 17:47:08.122
106, -503.78, -60.25, 263.98, -3296.58, 0.000, 0.000, 0.000, 17:47:08.122
107, -454.83, -37.22, 261.17, -3449.12, 0.000, 0.000, 0.000, 17:47:08.123
108, -463.76, -47.22, 235.17, -3369.21, 0.000, 0.000, 0.000, 17:47:08.123
111, -408.73, -18.04, 209.42, -3431.08, 0.000, 0.000, 0.000, 17:47:08.169
112, -422.82, -32.98, 187.64, -3404.16, 0.000, 0.000, 0.000, 17:47:08.169
113, -472.72, -58.57, 211.48, -3317.00, 0.000, 0.000, 0.000, 17:47:08.169
114, -462.09, -50.80, 232.58, -3286.67, 0.000, 0.000, 0.000, 17:47:08.169
115, -404.70, -10.04, 227.70, -3434.11, 0.000, 0.000, 0.000, 17:47:08.169
116, -424.61, -31.05, 195.09, -3452.74, 0.000, 0.000, 0.000, 17:47:08.169
117, -474.08, -60.10, 203.91, -3252.86, 0.000, 0.000, 0.000, 17:47:08.183
118, -456.90, -37.95, 213.39, -3279.58, 0.000, 0.000, 0.000, 17:47:08.183
119, -408.51, -10.12, 201.20, -3464.07, 0.000, 0.000, 0.000, 17:47:08.183
120, -417.89, -27.34, 167.67, -3387.85, 0.000, 0.000, 0.000, 17:47:08.183
121, -467.49, -51.37, 195.04, -3254.63, 0.000, 0.000, 0.000, 17:47:08.198
122, -465.13, -48.78, 220.97, -3334.91, 0.000, 0.000, 0.000, 17:47:08.198
123, -407.51, -17.95, 202.27, -3393.32, 0.000, 0.000, 0.000, 17:47:08.212
124, -427.84, -35.26, 180.76, -3362.62, 0.000, 0.000, 0.000, 17:47:08.212
125, -486.99, -76.00, 194.24, -3294.31, 0.000, 0.000, 0.000, 17:47:08.213
126, -446.10, -46.45, 206.85, -3297.94, 0.000, 0.000, 0.000, 17:47:08.213
127, -392.44, -13.14, 208.57, -3419.44, 0.000, 0.000, 0.000, 17:47:08.243
128, -411.68, -28.01, 203.33, -3427.11, 0.000, 0.000, 0.000, 17:47:08.243
129, -454.79, -56.50, 206.43, -3230.85, 0.000, 0.000, 0.000, 17:47:08.243
130, -446.24, -40.11, 233.59, -3275.63, 0.000, 0.000, 0.000, 17:47:08.243
131, -394.64, -11.55, 197.90, -3396.52, 0.000, 0.000, 0.000, 17:47:08.244
132, -414.79, -27.97, 178.61, -3367.16, 0.000, 0.000, 0.000, 17:47:08.244
133, -457.85, -53.41, 197.88, -3265.45, 0.000, 0.000, 0.000, 17:47:08.258
134, -457.64, -39.80, 228.44, -3411.64, 0.000, 0.000, 0.000, 17:47:08.258
135, -401.03, -13.48, 194.80, -3434.09, 0.000, 0.000, 0.000, 17:47:08.273
136, -411.63, -30.34, 184.50, -3399.61, 0.000, 0.000, 0.000, 17:47:08.273
137, -474.93, -62.97, 211.44, -3284.56, 0.000, 0.000, 0.000, 17:47:08.273
138, -457.30, -48.95, 226.30, -3275.72, 0.000, 0.000, 0.000, 17:47:08.273
139, -404.71, -15.96, 194.44, -3410.94, 0.000, 0.000, 0.000, 17:47:08.303
140, -424.06, -35.78, 194.90, -3453.89, 0.000, 0.000, 0.000, 17:47:08.303
141, -470.74, -54.34, 195.27, -3256.80, 0.000, 0.000, 0.000, 17:47:08.303
142, -456.33, -45.87, 210.60, -3311.69, 0.000, 0.000, 0.000, 17:47:08.303
143, -415.48, -29.35, 213.01, -3476.53, 0.000, 0.000, 0.000, 17:47:08.304
144, -410.55, -28.61, 197.38, -3378.14, 0.000, 0.000, 0.000, 17:47:08.304
145, -465.53, -58.10, 200.41, -3260.41, 0.000, 0.000, 0.000, 17:47:08.318
146, -466.70, -46.43, 236.96, -3405.67, 0.000, 0.000, 0.000, 17:47:08.318
147, -402.56, -15.16, 215.55, -3420.97, 0.000, 0.000, 0.000, 17:47:08.333
148, -410.40, -20.95, 199.91, -3376.46, 0.000, 0.000, 0.000, 17:47:08.333
149, -468.00, -53.06, 221.34, -3289.95, 0.000, 0.000, 0.000, 17:47:08.333
150, -456.55, -46.20, 234.37, -3285.86, 0.000, 0.000, 0.000, 17:47:08.333
151, -402.52, -14.56, 221.67, -3397.37, 0.000, 0.000, 0.000, 17:47:08.348
152, -414.38, -26.97, 202.40, -3404.71, 0.000, 0.000, 0.000, 17:47:08.348
153, -463.13, -52.74, 200.97, -3224.95, 0.000, 0.000, 0.000, 17:47:08.362
154, -451.58, -44.78, 220.41, -3273.67, 0.000, 0.000, 0.000, 17:47:08.363
155, -401.23, -14.18, 208.70, -3428.53, 0.000, 0.000, 0.000, 17:47:08.363
156, -411.67, -25.54, 177.41, -3382.66, 0.000, 0.000, 0.000, 17:47:08.363
157, -463.23, -50.14, 202.66, -3280.80, 0.000, 0.000, 0.000, 17:47:08.378
158, -466.19, -42.45, 230.09, -3382.33, 0.000, 0.000, 0.000, 17:47:08.378
159, -392.27, -4.85, 223.70, -3409.01, 0.000, 0.000, 0.000, 17:47:08.392
160, -411.75, -30.05, 208.85, -3373.25, 0.000, 0.000, 0.000, 17:47:08.393
161, -486.73, -70.86, 225.39, -3275.90, 0.000, 0.000, 0.000, 17:47:08.393
162, -445.95, -24.49, 209.22, -3275.69, 0.000, 0.000, 0.000, 17:47:08.393
163, -391.16, -0.02, 194.27, -3400.07, 0.000, 0.000, 0.000, 17:47:08.408
164, -411.54, -21.37, 198.33, -3432.50, 0.000, 0.000, 0.000, 17:47:08.408
165, -466.51, -47.09, 217.01, -3230.61, 0.000, 0.000, 0.000, 17:47:08.423
166, -456.79, -37.01, 227.30, -3265.78, 0.000, 0.000, 0.000, 17:47:08.423
167, -405.01, -12.13, 212.82, -3448.33, 0.000, 0.000, 0.000, 17:47:08.423
168, -411.30, -29.66, 181.90, -3353.75, 0.000, 0.000, 0.000, 17:47:08.423
169, -475.78, -63.05, 204.30, -3241.87, 0.000, 0.000, 0.000, 17:47:08.438
170, -473.81, -54.78, 224.99, -3335.00, 0.000, 0.000, 0.000, 17:47:08.438
171, -408.23, -16.09, 211.75, -3401.12, 0.000, 0.000, 0.000, 17:47:08.453
172, -422.70, -29.79, 204.68, -3382.37, 0.000, 0.000, 0.000, 17:47:08.453
173, -480.73, -62.71, 201.36, -3301.32, 0.000, 0.000, 0.000, 17:47:08.453
174, -473.08, -51.39, 225.19, -3282.62, 0.000, 0.000, 0.000, 17:47:08.453
175, -412.76, -20.65, 211.94, -3420.39, 0.000, 0.000, 0.000, 17:47:08.468
176, -419.21, -29.52, 198.99, -3416.05, 0.000, 0.000, 0.000, 17:47:08.468
177, -461.82, -46.42, 214.13, -3224.08, 0.000, 0.000, 0.000, 17:47:08.483
178, -457.38, -40.18, 216.56, -3289.96, 0.000, 0.000, 0.000, 17:47:08.483
179, -400.48, -10.65, 207.12, -3473.43, 0.000, 0.000, 0.000, 17:47:08.483
180, -410.39, -22.81, 199.80, -3360.58, 0.000, 0.000, 0.000, 17:47:08.483
181, -460.49, -50.05, 207.45, -3239.18, 0.000, 0.000, 0.000, 17:47:08.498
182, -460.97, -43.27, 227.27, -3342.71, 0.000, 0.000, 0.000, 17:47:08.498
183, -400.68, -15.49, 188.29, -3389.79, 0.000, 0.000, 0.000, 17:47:08.513
184, -400.90, -17.13, 197.23, -3359.44, 0.000, 0.000, 0.000, 17:47:08.513
185, -451.23, -41.65, 232.22, -3267.19, 0.000, 0.000, 0.000, 17:47:08.513
186, -448.76, -38.16, 215.07, -3260.58, 0.000, 0.000, 0.000, 17:47:08.513
187, -390.68, -9.13, 208.14, -3412.44, 0.000, 0.000, 0.000, 17:47:08.528
188, -408.90, -26.44, 204.98, -3416.01, 0.000, 0.000, 0.000, 17:47:08.528
189, -464.88, -57.50, 187.57, -3214.68, 0.000, 0.000, 0.000, 17:47:08.558
190, -460.32, -47.76, 213.45, -3274.20, 0.000, 0.000, 0.000, 17:47:08.558
191, -403.75, -12.78, 212.94, -3451.34, 0.000, 0.000, 0.000, 17:47:08.558
192, -408.16, -24.25, 189.07, -3374.12, 0.000, 0.000, 0.000, 17:47:08.558
193, -470.45, -55.38, 207.08, -3292.72, 0.000, 0.000, 0.000, 17:47:08.559
194, -458.98, -46.86, 217.07, -3286.49, 0.000, 0.000, 0.000, 17:47:08.559
195, -400.65, -14.34, 207.57, -3419.53, 0.000, 0.000, 0.000, 17:47:08.560
196, -413.12, -25.46, 187.82, -3416.17, 0.000, 0.000, 0.000, 17:47:08.560
197, -482.82, -60.96, 225.33, -3439.64, 0.000, 0.000, 0.000, 17:47:08.573
198, -451.88, -39.81, 231.42, -3270.29, 0.000, 0.000, 0.000, 17:47:08.573
199, -406.81, -16.90, 222.05, -3412.82, 0.000, 0.000, 0.000, 17:47:08.587
200, -411.79, -21.14, 191.59, -3399.16, 0.000, 0.000, 0.000, 17:47:08.587
0, -505.27, -61.18, 261.82, -3234.67, 0.000, 0.000, 0.000, 17:47:08.588
1, -502.28, -58.52, 260.30, -3292.89, 0.000, 0.000, 0.000, 17:47:08.603
2, -457.19, -34.16, 265.89, -3482.55, 0.000, 0.000, 0.000, 17:47:08.603
3, -449.80, -37.68, 256.74, -3398.32, 0.000, 0.000, 0.000, 17:47:08.618
4, -512.44, -70.42, 241.37, -3256.49, 0.000, 0.000, 0.000, 17:47:08.618
5, -510.29, -63.14, 269.24, -3315.36, 0.000, 0.000, 0.000, 17:47:08.618
6, -437.03, -25.57, 260.96, -3393.29, 0.000, 0.000, 0.000, 17:47:08.618
7, -456.76, -40.37, 240.63, -3430.14, 0.000, 0.000, 0.000, 17:47:08.633
8, -522.72, -76.39, 258.53, -3329.28, 0.000, 0.000, 0.000, 17:47:08.633
9, -508.72, -64.69, 270.36, -3286.49, 0.000, 0.000, 0.000, 17:47:08.648
10, -454.16, -31.58, 252.65, -3412.47, 0.000, 0.000, 0.000, 17:47:08.648
11, -466.35, -43.96, 241.25, -3439.87, 0.000, 0.000, 0.000, 17:47:08.648
12, -510.28, -69.51, 257.55, -3258.95, 0.000, 0.000, 0.000, 17:47:08.648
13, -507.74, -65.09, 281.11, -3307.81, 0.000, 0.000, 0.000, 17:47:08.663
14, -472.15, -38.85, 256.91, -3493.04, 0.000, 0.000, 0.000, 17:47:08.663
15, -449.66, -34.15, 241.13, -3373.68, 0.000, 0.000, 0.000, 17:47:08.677
16, -509.45, -67.39, 257.12, -3241.93, 0.000, 0.000, 0.000, 17:47:08.678
17, -512.16, -64.47, 275.66, -3313.03, 0.000, 0.000, 0.000, 17:47:08.678
18, -452.05, -29.54, 273.87, -3388.40, 0.000, 0.000, 0.000, 17:47:08.678
19, -454.76, -42.42, 267.49, -3390.55, 0.000, 0.000, 0.000, 17:47:08.693
20, -512.55, -78.75, 256.50, -3296.99, 0.000, 0.000, 0.000, 17:47:08.693
21, -501.47, -62.54, 282.77, -3243.66, 0.000, 0.000, 0.000, 17:47:08.707
22, -450.33, -27.40, 270.13, -3412.25, 0.000, 0.000, 0.000, 17:47:08.708
23, -445.01, -29.27, 261.18, -3391.04, 0.000, 0.000, 0.000, 17:47:08.708
24, -511.09, -70.55, 249.06, -3270.47, 0.000, 0.000, 0.000, 17:47:08.708
25, -511.99, -66.01, 262.35, -3319.57, 0.000, 0.000, 0.000, 17:47:08.723
26, -456.47, -33.21, 258.63, -3477.47, 0.000, 0.000, 0.000, 17:47:08.723
27, -454.71, -39.36, 240.90, -3411.04, 0.000, 0.000, 0.000, 17:47:08.738
28, -515.49, -70.45, 255.50, -3274.16, 0.000, 0.000, 0.000, 17:47:08.738
29, -506.20, -60.55, 279.93, -3341.81, 0.000, 0.000, 0.000, 17:47:08.738
30, -449.65, -30.47, 258.56, -3443.37, 0.000, 0.000, 0.000, 17:47:08.738
31, -443.54, -37.47, 248.71, -3448.51, 0.000, 0.000, 0.000, 17:47:08.753
32, -517.05, -77.08, 257.89, -3340.69, 0.000, 0.000, 0.000, 17:47:08.753
33, -501.43, -56.54, 268.75, -3293.45, 0.000, 0.000, 0.000, 17:47:08.767
34, -455.25, -28.79, 264.58, -3403.32, 0.000, 0.000, 0.000, 17:47:08.768
35, -460.54, -44.87, 241.15, -3434.23, 0.000, 0.000, 0.000, 17:47:08.768
36, -516.59, -78.61, 247.38, -3261.83, 0.000, 0.000, 0.000, 17:47:08.768
37, -509.37, -65.41, 280.32, -3332.26, 0.000, 0.000, 0.000, 17:47:08.783
38, -463.44, -40.70, 266.63, -3501.26, 0.000, 0.000, 0.000, 17:47:08.783
39, -455.04, -43.92, 239.99, -3405.91, 0.000, 0.000, 0.000, 17:47:08.798
40, -511.61, -77.11, 252.78, -3277.75, 0.000, 0.000, 0.000, 17:47:08.798
41, -495.87, -56.65, 270.99, -3316.34, 0.000, 0.000, 0.000, 17:47:08.798
42, -451.51, -37.04, 244.10, -3401.17, 0.000, 0.000, 0.000, 17:47:08.798
43, -459.06, -40.45, 237.32, -3394.58, 0.000, 0.000, 0.000, 17:47:08.813
44, -520.61, -81.25, 250.14, -3341.86, 0.000, 0.000, 0.000, 17:47:08.813
45, -507.33, -66.78, 277.95, -3252.24, 0.000, 0.000, 0.000, 17:47:08.828
46, -450.39, -32.91, 269.87, -3396.07, 0.000, 0.000, 0.000, 17:47:08.828
47, -462.32, -48.91, 248.10, -3446.30, 0.000, 0.000, 0.000, 17:47:08.828
48, -520.02, -79.45, 250.74, -3272.19, 0.000, 0.000, 0.000, 17:47:08.828
49, -505.07, -59.91, 278.44, -3292.58, 0.000, 0.000, 0.000, 17:47:08.843
50, -459.49, -36.43, 272.15, -3479.31, 0.000, 0.000, 0.000, 17:47:08.843
51, -457.37, -42.99, 242.72, -3375.32, 0.000, 0.000, 0.000, 17:47:08.857
52, -512.87, -78.32, 251.58, -3296.98, 0.000, 0.000, 0.000, 17:47:08.857
53, -513.05, -66.75, 272.54, -3317.77, 0.000, 0.000, 0.000, 17:47:08.858
54, -459.23, -36.92, 259.92, -3431.94, 0.000, 0.000, 0.000, 17:47:08.858
55, -460.13, -40.58, 240.20, -3451.68, 0.000, 0.000, 0.000, 17:47:08.873
56, -526.66, -76.33, 248.65, -3363.97, 0.000, 0.000, 0.000, 17:47:08.873
57, -514.61, -66.98, 270.15, -3314.10, 0.000, 0.000, 0.000, 17:47:08.888
58, -460.33, -36.93, 271.75, -3460.99, 0.000, 0.000, 0.000, 17:47:08.888
59, -466.55, -47.78, 244.64, -3444.32, 0.000, 0.000, 0.000, 17:47:08.888
60, -508.64, -72.94, 272.52, -3275.83, 0.000, 0.000, 0.000, 17:47:08.888
61, -517.34, -69.67, 270.17, -3334.56, 0.000, 0.000, 0.000, 17:47:08.917
62, -466.34, -39.63, 269.44, -3497.59, 0.000, 0.000, 0.000, 17:47:08.918
63, -457.21, -40.73, 252.10, -3403.35, 0.000, 0.000, 0.000, 17:47:08.918
64, -509.18, -68.64, 248.66, -3278.99, 0.000, 0.000, 0.000, 17:47:08.918
65, -471.99, -27.90, 314.23, -3246.55, 0.000, 0.000, 0.000, 17:47:08.919
66, -401.72, 17.39, 303.73, -3362.58, 0.000, 0.000, 0.000, 17:47:08.919
67, -414.60, 7.10, 274.36, -3371.64, 0.000, 0.000, 0.000, 17:47:08.933
68, -482.97, -35.62, 290.21, -3354.18, 0.000, 0.000, 0.000, 17:47:08.933
69, -471.39, -24.52, 301.29, -3219.19, 0.000, 0.000, 0.000, 17:47:08.947
70, -420.59, 0.40, 284.25, -3404.05, 0.000, 0.000, 0.000, 17:47:08.948
71, -423.95, -4.90, 262.54, -3436.37, 0.000, 0.000, 0.000, 17:47:08.948
72, -477.90, -41.35, 281.30, -3252.27, 0.000, 0.000, 0.000, 17:47:08.948
73, -491.84, -46.30, 301.35, -3297.15, 0.000, 0.000, 0.000, 17:47:08.963
74, -443.57, -16.04, 293.92, -3503.10, 0.000, 0.000, 0.000, 17:47:08.963
75, -440.02, -20.15, 264.03, -3397.72, 0.000, 0.000, 0.000, 17:47:08.978
76, -494.32, -56.57, 262.46, -3259.12, 0.000, 0.000, 0.000, 17:47:08.978
77, -496.77, -50.72, 293.72, -3295.67, 0.000, 0.000, 0.000, 17:47:08.978
78, -436.57, -18.88, 285.43, -3373.86, 0.000, 0.000, 0.000, 17:47:08.978
79, -443.05, -26.55, 256.70, -3370.21, 0.000, 0.000, 0.000, 17:47:08.993
80, -511.06, -62.81, 266.23, -3270.01, 0.000, 0.000, 0.000, 17:47:08.993
81, -503.30, -62.17, 285.65, -3250.15, 0.000, 0.000, 0.000, 17:47:09.007
82, -446.66, -25.02, 287.89, -3386.99, 0.000, 0.000, 0.000, 17:47:09.007
83, -452.32, -31.22, 257.13, -3387.98, 0.000, 0.000, 0.000, 17:47:09.008
84, -499.07, -60.80, 252.82, -3219.42, 0.000, 0.000, 0.000, 17:47:09.008
85, -501.59, -64.09, 270.10, -3294.23, 0.000, 0.000, 0.000, 17:47:09.023
86, -453.83, -34.69, 265.02, -3459.26, 0.000, 0.000, 0.000, 17:47:09.023
87, -451.47, -35.73, 253.30, -3418.43, 0.000, 0.000, 0.000, 17:47:09.038
88, -507.09, -71.57, 254.98, -3292.48, 0.000, 0.000, 0.000, 17:47:09.038
89, -505.84, -62.95, 272.39, -3323.09, 0.000, 0.000, 0.000, 17:47:09.038
90, -447.76, -29.59, 265.86, -3371.93, 0.000, 0.000, 0.000, 17:47:09.038
91, -445.26, -37.39, 240.54, -3384.99, 0.000, 0.000, 0.000, 17:47:09.053
92, -506.56, -72.11, 254.50, -3329.60, 0.000, 0.000, 0.000, 17:47:09.053
93, -496.25, -56.88, 285.96, -3266.88, 0.000, 0.000, 0.000, 17:47:09.068
94, -448.47, -27.85, 266.49, -3418.45, 0.000, 0.000, 0.000, 17:47:09.068
95, -456.74, -35.63, 247.99, -3453.50, 0.000, 0.000, 0.000, 17:47:09.068
96, -501.96, -63.44, 261.13, -3251.11, 0.000, 0.000, 0.000, 17:47:09.068
97, -507.30, -56.38, 277.92, -3290.44, 0.000, 0.000, 0.000, 17:47:09.083
98, -457.70, -33.14, 257.12, -3471.62, 0.000, 0.000, 0.000, 17:47:09.083
99, -445.36, -30.33, 245.14, -3382.45, 0.000, 0.000, 0.000, 17:47:09.098
100, -492.15, -57.52, 260.59, -3263.58, 0.000, 0.000, 0.000, 17:47:09.098
101, -500.68, -57.39, 251.44, -3293.38, 0.000, 0.000, 0.000, 17:47:09.098
102, -447.11, -30.25, 252.12, -3374.20, 0.000, 0.000, 0.000, 17:47:09.098
103, -451.64, -38.24, 231.02, -3415.37, 0.000, 0.000, 0.000, 17:47:09.113
104, -509.52, -69.46, 253.97, -3342.98, 0.000, 0.000, 0.000, 17:47:09.113
105, -512.63, -65.81, 269.04, -3259.67, 0.000, 0.000, 0.000, 17:47:09.128
106, -454.22, -29.89, 265.88, -3391.20, 0.000, 0.000, 0.000, 17:47:09.128
107, -456.68, -36.32, 249.01, -3407.97, 0.000, 0.000, 0.000, 17:47:09.128
108, -513.77, -75.24, 252.66, -3262.00, 0.000, 0.000, 0.000, 17:47:09.128
109, -505.09, -61.68, 284.11, -3272.84, 0.000, 0.000, 0.000, 17:47:09.143
110, -458.62, -27.56, 294.03, -3464.61, 0.000, 0.000, 0.000, 17:47:09.143
111, -451.50, -39.07, 254.10, -3402.06, 0.000, 0.000, 0.000, 17:47:09.157
112, -503.86, -69.67, 258.31, -3269.24, 0.000, 0.000, 0.000, 17:47:09.158
113, -508.50, -66.01, 282.16, -3287.79, 0.000, 0.000, 0.000, 17:47:09.158
114, -444.72, -25.67, 275.95, -3373.87, 0.000, 0.000, 0.000, 17:47:09.158
115, -444.43, -32.97, 254.61, -3372.64, 0.000, 0.000, 0.000, 17:47:09.173
116, -500.44, -58.12, 279.33, -3310.19, 0.000, 0.000, 0.000, 17:47:09.173
117, -501.68, -59.53, 279.31, -3266.85, 0.000, 0.000, 0.000, 17:47:09.202
118, -452.22, -33.45, 245.78, -3419.61, 0.000, 0.000, 0.000, 17:47:09.203
119, -455.86, -34.45, 235.45, -3442.93, 0.000, 0.000, 0.000, 17:47:09.203
120, -502.88, -60.23, 258.79, -3265.51, 0.000, 0.000, 0.000, 17:47:09.203
121, -509.23, -63.29, 278.61, -3301.30, 0.000, 0.000, 0.000, 17:47:09.204
122, -456.97, -36.83, 267.16, -3442.91, 0.000, 0.000, 0.000, 17:47:09.204
123, -447.80, -36.30, 239.37, -3395.71, 0.000, 0.000, 0.000, 17:47:09.204
124, -514.39, -78.05, 249.66, -3276.03, 0.000, 0.000, 0.000, 17:47:09.204
125, -538.82, -80.55, 281.12, -3464.93, 0.000, 0.000, 0.000, 17:47:09.218
126, -453.53, -34.95, 271.18, -3376.40, 0.000, 0.000, 0.000, 17:47:09.218
127, -462.25, -53.61, 245.03, -3394.11, 0.000, 0.000, 0.000, 17:47:09.233
128, -513.05, -75.10, 248.89, -3319.42, 0.000, 0.000, 0.000, 17:47:09.233
129, -516.84, -69.72, 264.85, -3260.45, 0.000, 0.000, 0.000, 17:47:09.247
130, -453.91, -35.54, 262.44, -3410.81, 0.000, 0.000, 0.000, 17:47:09.247
131, -460.51, -44.77, 240.56, -3466.38, 0.000, 0.000, 0.000, 17:47:09.248
132, -510.30, -73.26, 254.12, -3282.80, 0.000, 0.000, 0.000, 17:47:09.248
133, -515.43, -61.81, 287.40, -3266.66, 0.000, 0.000, 0.000, 17:47:09.263
134, -470.58, -38.95, 266.67, -3473.03, 0.000, 0.000, 0.000, 17:47:09.263
135, -461.58, -46.94, 235.92, -3418.96, 0.000, 0.000, 0.000, 17:47:09.278
136, -514.81, -73.61, 249.66, -3315.42, 0.000, 0.000, 0.000, 17:47:09.278
137, -515.16, -67.69, 274.21, -3313.95, 0.000, 0.000, 0.000, 17:47:09.278
138, -454.03, -33.20, 240.76, -3366.84, 0.000, 0.000, 0.000, 17:47:09.278
139, -458.73, -45.51, 218.92, -3404.87, 0.000, 0.000, 0.000, 17:47:09.293
140, -519.85, -77.54, 247.82, -3342.43, 0.000, 0.000, 0.000, 17:47:09.293
141, -528.83, -77.62, 265.10, -3260.21, 0.000, 0.000, 0.000, 17:47:09.308
142, -469.57, -38.06, 267.07, -3401.28, 0.000, 0.000, 0.000, 17:47:09.308
143, -457.79, -43.84, 244.20, -3413.03, 0.000, 0.000, 0.000, 17:47:09.308
144, -503.07, -65.25, 244.26, -3237.98, 0.000, 0.000, 0.000, 17:47:09.308
145, -502.13, -61.61, 272.58, -3284.12, 0.000, 0.000, 0.000, 17:47:09.323
146, -458.75, -43.59, 255.91, -3493.91, 0.000, 0.000, 0.000, 17:47:09.323
147, -454.75, -41.00, 234.49, -3424.49, 0.000, 0.000, 0.000, 17:47:09.337
148, -503.84, -65.63, 239.37, -3300.16, 0.000, 0.000, 0.000, 17:47:09.338
149, -498.16, -51.98, 277.17, -3325.38, 0.000, 0.000, 0.000, 17:47:09.338
150, -442.51, -20.64, 254.52, -3406.97, 0.000, 0.000, 0.000, 17:47:09.338
151, -427.67, -15.38, 246.26, -3421.17, 0.000, 0.000, 0.000, 17:47:09.353
152, -477.51, -41.92, 253.33, -3319.53, 0.000, 0.000, 0.000, 17:47:09.353
153, -470.54, -28.79, 258.56, -3263.52, 0.000, 0.000, 0.000, 17:47:09.368
154, -405.53, 9.24, 254.40, -3380.90, 0.000, 0.000, 0.000, 17:47:09.368
155, -392.87, 22.71, 237.25, -3404.81, 0.000, 0.000, 0.000, 17:47:09.368
156, -456.06, -17.32, 243.56, -3279.94, 0.000, 0.000, 0.000, 17:47:09.368
157, -449.37, 0.97, 261.17, -3269.54, 0.000, 0.000, 0.000, 17:47:09.383
158, -389.25, 49.27, 267.11, -3450.69, 0.000, 0.000, 0.000, 17:47:09.383
159, -373.55, 43.60, 235.54, -3415.81, 0.000, 0.000, 0.000, 17:47:09.398
160, -417.29, 24.35, 269.01, -3289.66, 0.000, 0.000, 0.000, 17:47:09.398
161, -422.29, 33.34, 275.82, -3287.96, 0.000, 0.000, 0.000, 17:47:09.398
162, -354.52, 77.16, 260.94, -3380.62, 0.000, 0.000, 0.000, 17:47:09.398
163, -340.57, 74.15, 231.99, -3394.22, 0.000, 0.000, 0.000, 17:47:09.413
164, -405.12, 44.64, 245.99, -3348.10, 0.000, 0.000, 0.000, 17:47:09.413
165, -390.42, 57.21, 261.67, -3261.36, 0.000, 0.000, 0.000, 17:47:09.428
166, -329.28, 86.32, 270.96, -3397.58, 0.000, 0.000, 0.000, 17:47:09.428
167, -350.57, 65.95, 255.84, -3408.45, 0.000, 0.000, 0.000, 17:47:09.428
168, -410.45, 37.82, 246.61, -3248.17, 0.000, 0.000, 0.000, 17:47:09.428
169, -425.60, 31.49, 256.03, -3233.55, 0.000, 0.000, 0.000, 17:47:09.443
170, -370.93, 55.85, 264.83, -3429.59, 0.000, 0.000, 0.000, 17:47:09.443
171, -349.13, 56.85, 232.67, -3383.64, 0.000, 0.000, 0.000, 17:47:09.458
172, -431.46, -0.42, 255.94, -3249.99, 0.000, 0.000, 0.000, 17:47:09.458
173, -443.26, -5.00, 283.40, -3270.28, 0.000, 0.000, 0.000, 17:47:09.458
174, -412.30, 10.80, 249.85, -3400.92, 0.000, 0.000, 0.000, 17:47:09.458
175, -413.38, 1.35, 245.45, -3427.00, 0.000, 0.000, 0.000, 17:47:09.473
176, -490.31, -50.58, 244.02, -3342.26, 0.000, 0.000, 0.000, 17:47:09.473
177, -497.95, -56.43, 254.91, -3283.90, 0.000, 0.000, 0.000, 17:47:09.488
178, -461.79, -40.29, 247.29, -3429.05, 0.000, 0.000, 0.000, 17:47:09.488
179, -463.04, -44.93, 237.38, -3444.69, 0.000, 0.000, 0.000, 17:47:09.488
180, -545.74, -101.43, 233.93, -3309.01, 0.000, 0.000, 0.000, 17:47:09.488
181, -551.90, -101.49, 250.48, -3297.90, 0.000, 0.000, 0.000, 17:47:09.517
182, -513.02, -79.42, 247.88, -3488.13, 0.000, 0.000, 0.000, 17:47:09.518
183, -497.76, -84.01, 226.40, -3440.49, 0.000, 0.000, 0.000, 17:47:09.518
184, -557.31, -114.41, 227.53, -3310.96, 0.000, 0.000, 0.000, 17:47:09.518
185, -570.33, -120.99, 249.14, -3312.39, 0.000, 0.000, 0.000, 17:47:09.519
186, -513.37, -85.27, 254.09, -3409.76, 0.000, 0.000, 0.000, 17:47:09.519
187, -518.09, -98.15, 237.60, -3477.55, 0.000, 0.000, 0.000, 17:47:09.533
188, -589.66, -142.96, 234.31, -3443.43, 0.000, 0.000, 0.000, 17:47:09.533
189, -574.19, -132.11, 263.95, -3265.68, 0.000, 0.000, 0.000, 17:47:09.548
190, -520.38, -99.16, 245.50, -3397.75, 0.000, 0.000, 0.000, 17:47:09.548
191, -514.09, -97.37, 237.20, -3441.95, 0.000, 0.000, 0.000, 17:47:09.548
192, -571.71, -138.40, 237.37, -3320.27, 0.000, 0.000, 0.000, 17:47:09.548
193, -576.58, -135.87, 273.83, -3314.09, 0.000, 0.000, 0.000, 17:47:09.563
194, -532.23, -109.07, 236.37, -3492.11, 0.000, 0.000, 0.000, 17:47:09.563
195, -513.96, -103.50, 210.94, -3446.17, 0.000, 0.000, 0.000, 17:47:09.578
196, -570.83, -134.85, 229.70, -3332.61, 0.000, 0.000, 0.000, 17:47:09.578
197, -579.45, -132.60, 266.66, -3310.32, 0.000, 0.000, 0.000, 17:47:09.578
198, -522.73, -100.34, 270.64, -3409.23, 0.000, 0.000, 0.000, 17:47:09.578
199, -516.15, -103.31, 240.56, -3433.60, 0.000, 0.000, 0.000, 17:47:09.593
200, -572.25, -136.72, 241.35, -3365.98, 0.000, 0.000, 0.000, 17:47:09.593
0, -571.86, -129.56, 263.61, -3288.84, 0.000, 0.000, 0.000, 17:47:09.593
1, -517.93, -93.26, 253.52, -3442.13, 0.000, 0.000, 0.000, 17:47:09.608
2, -517.76, -96.79, 255.25, -3513.89, 0.000, 0.000, 0.000, 17:47:09.608
3, -563.86, -129.00, 231.17, -3318.05, 0.000, 0.000, 0.000, 17:47:09.623
4, -570.94, -124.79, 251.95, -3303.65, 0.000, 0.000, 0.000, 17:47:09.623
5, -511.64, -89.53, 270.38, -3467.57, 0.000, 0.000, 0.000, 17:47:09.623
6, -494.50, -80.64, 238.84, -3422.32, 0.000, 0.000, 0.000, 17:47:09.623
7, -556.71, -121.29, 239.00, -3342.62, 0.000, 0.000, 0.000, 17:47:09.638
8, -567.99, -113.98, 269.70, -3362.95, 0.000, 0.000, 0.000, 17:47:09.638
9, -498.27, -74.93, 257.40, -3411.36, 0.000, 0.000, 0.000, 17:47:09.652
10, -486.76, -66.05, 241.69, -3392.85, 0.000, 0.000, 0.000, 17:47:09.653
11, -542.10, -102.02, 250.45, -3285.75, 0.000, 0.000, 0.000, 17:47:09.653
12, -537.31, -99.33, 270.80, -3241.81, 0.000, 0.000, 0.000, 17:47:09.653
13, -494.14, -72.22, 257.10, -3420.56, 0.000, 0.000, 0.000, 17:47:09.668
14, -480.59, -68.55, 248.11, -3484.05, 0.000, 0.000, 0.000, 17:47:09.668
15, -527.88, -90.78, 257.74, -3298.71, 0.000, 0.000, 0.000, 17:47:09.683
16, -529.64, -86.58, 296.73, -3294.14, 0.000, 0.000, 0.000, 17:47:09.683
17, -484.51, -59.88, 269.04, -3425.39, 0.000, 0.000, 0.000, 17:47:09.683
18, -483.39, -66.37, 233.29, -3407.96, 0.000, 0.000, 0.000, 17:47:09.683
19, -517.94, -86.75, 244.76, -3289.90, 0.000, 0.000, 0.000, 17:47:09.698
20, -543.50, -95.17, 268.63, -3338.16, 0.000, 0.000, 0.000, 17:47:09.698
21, -475.52, -54.64, 263.71, -3388.17, 0.000, 0.000, 0.000, 17:47:09.712
22, -465.57, -50.71, 227.78, -3428.54, 0.000, 0.000, 0.000, 17:47:09.713
23, -519.34, -81.03, 238.40, -3334.03, 0.000, 0.000, 0.000, 17:47:09.713
24, -530.88, -84.72, 264.15, -3279.13, 0.000, 0.000, 0.000, 17:47:09.713
25, -467.18, -43.98, 260.61, -3419.63, 0.000, 0.000, 0.000, 17:47:09.728
26, -460.07, -43.39, 248.45, -3485.27, 0.000, 0.000, 0.000, 17:47:09.728
27, -516.81, -84.02, 248.59, -3277.35, 0.000, 0.000, 0.000, 17:47:09.743
28, -530.72, -91.81, 271.04, -3291.58, 0.000, 0.000, 0.000, 17:47:09.743
29, -470.32, -49.46, 260.08, -3419.37, 0.000, 0.000, 0.000, 17:47:09.743
30, -457.63, -42.40, 240.66, -3428.04, 0.000, 0.000, 0.000, 17:47:09.743
31, -508.37, -72.40, 254.04, -3273.08, 0.000, 0.000, 0.000, 17:47:09.758
32, -522.41, -73.64, 264.79, -3306.98, 0.000, 0.000, 0.000, 17:47:09.758
33, -463.98, -46.89, 249.48, -3388.55, 0.000, 0.000, 0.000, 17:47:09.773
34, -459.49, -52.79, 228.29, -3433.39, 0.000, 0.000, 0.000, 17:47:09.773
35, -524.20, -88.52, 255.94, -3330.47, 0.000, 0.000, 0.000, 17:47:09.773
36, -528.38, -82.64, 253.47, -3244.34, 0.000, 0.000, 0.000, 17:47:09.773
37, -477.72, -57.22, 251.90, -3406.30, 0.000, 0.000, 0.000, 17:47:09.788
38, -476.84, -58.47, 239.37, -3472.95, 0.000, 0.000, 0.000, 17:47:09.788
39, -526.25, -92.88, 229.89, -3276.45, 0.000, 0.000, 0.000, 17:47:09.802
40, -530.01, -85.36, 254.71, -3265.93, 0.000, 0.000, 0.000, 17:47:09.803
41, -482.32, -54.85, 253.34, -3419.78, 0.000, 0.000, 0.000, 17:47:09.803
42, -465.29, -55.15, 226.11, -3408.08, 0.000, 0.000, 0.000, 17:47:09.803
43, -510.29, -82.10, 252.11, -3319.06, 0.000, 0.000, 0.000, 17:47:09.818
44, -543.96, -97.15, 266.54, -3367.45, 0.000, 0.000, 0.000, 17:47:09.818
45, -475.08, -54.58, 257.69, -3442.15, 0.000, 0.000, 0.000, 17:47:09.832
46, -461.90, -51.04, 235.13, -3429.60, 0.000, 0.000, 0.000, 17:47:09.833
47, -518.80, -81.19, 253.08, -3331.12, 0.000, 0.000, 0.000, 17:47:09.833
48, -526.92, -80.91, 260.14, -3268.73, 0.000, 0.000, 0.000, 17:47:09.833
49, -468.89, -47.52, 258.50, -3399.85, 0.000, 0.000, 0.000, 17:47:09.848
50, -473.99, -55.50, 251.79, -3510.53, 0.000, 0.000, 0.000, 17:47:09.848
51, -525.06, -87.14, 249.94, -3294.53, 0.000, 0.000, 0.000, 17:47:09.863
52, -525.61, -74.10, 275.45, -3264.86, 0.000, 0.000, 0.000, 17:47:09.863
53, -478.97, -53.50, 249.80, -3442.80, 0.000, 0.000, 0.000, 17:47:09.863
54, -462.76, -56.28, 242.41, -3426.53, 0.000, 0.000, 0.000, 17:47:09.863
55, -509.94, -77.73, 244.03, -3315.51, 0.000, 0.000, 0.000, 17:47:09.878
56, -527.72, -80.11, 266.06, -3346.48, 0.000, 0.000, 0.000, 17:47:09.878
57, -455.53, -40.63, 261.55, -3351.06, 0.000, 0.000, 0.000, 17:47:09.892
58, -447.86, -44.06, 235.77, -3391.60, 0.000, 0.000, 0.000, 17:47:09.893
59, -511.35, -83.53, 243.97, -3282.78, 0.000, 0.000, 0.000, 17:47:09.893
60, -515.65, -77.60, 277.38, -3240.79, 0.000, 0.000, 0.000, 17:47:09.893
61, -464.74, -41.44, 274.39, -3361.75, 0.000, 0.000, 0.000, 17:47:09.908
62, -459.54, -44.45, 245.69, -3450.05, 0.000, 0.000, 0.000, 17:47:09.908
63, -513.02, -81.90, 238.05, -3288.64, 0.000, 0.000, 0.000, 17:47:09.922
64, -513.24, -72.60, 263.79, -3295.98, 0.000, 0.000, 0.000, 17:47:09.923
65, -465.05, -45.08, 275.97, -3430.52, 0.000, 0.000, 0.000, 17:47:09.923
66, -453.27, -46.59, 227.95, -3423.30, 0.000, 0.000, 0.000, 17:47:09.923
67, -510.58, -73.52, 245.78, -3282.81, 0.000, 0.000, 0.000, 17:47:09.938
68, -526.11, -72.24, 272.89, -3301.94, 0.000, 0.000, 0.000, 17:47:09.938
69, -463.76, -41.63, 264.28, -3363.08, 0.000, 0.000, 0.000, 17:47:09.953
70, -441.53, -31.48, 252.83, -3381.44, 0.000, 0.000, 0.000, 17:47:09.953
71, -506.64, -74.18, 248.35, -3288.58, 0.000, 0.000, 0.000, 17:47:09.953
72, -509.28, -66.02, 273.59, -3238.93, 0.000, 0.000, 0.000, 17:47:09.954
73, -468.82, -46.82, 258.21, -3416.30, 0.000, 0.000, 0.000, 17:47:09.968
74, -462.97, -44.43, 249.63, -3493.34, 0.000, 0.000, 0.000, 17:47:09.968
75, -499.71, -66.91, 242.39, -3279.33, 0.000, 0.000, 0.000, 17:47:09.983
76, -503.94, -59.00, 289.08, -3242.10, 0.000, 0.000, 0.000, 17:47:09.983
77, -462.51, -38.09, 272.74, -3393.90, 0.000, 0.000, 0.000, 17:47:09.983
78, -440.25, -29.08, 237.03, -3340.22, 0.000, 0.000, 0.000, 17:47:09.983
79, -493.82, -62.50, 257.20, -3247.20, 0.000, 0.000, 0.000, 17:47:09.998
80, -518.42, -66.64, 270.30, -3325.07, 0.000, 0.000, 0.000, 17:47:09.998
81, -459.38, -30.34, 273.08, -3418.86, 0.000, 0.000, 0.000, 17:47:10.013
82, -445.53, -28.79, 239.22, -3457.51, 0.000, 0.000, 0.000, 17:47:10.013
83, -504.57, -60.84, 252.28, -3325.20, 0.000, 0.000, 0.000, 17:47:10.013
84, -505.71, -60.83, 269.50, -3255.74, 0.000, 0.000, 0.000, 17:47:10.013
85, -462.17, -37.74, 247.39, -3392.44, 0.000, 0.000, 0.000, 17:47:10.028
86, -445.62, -31.89, 253.96, -3486.32, 0.000, 0.000, 0.000, 17:47:10.028
87, -509.19, -69.86, 238.15, -3298.00, 0.000, 0.000, 0.000, 17:47:10.043
88, -514.43, -65.04, 271.67, -3283.62, 0.000, 0.000, 0.000, 17:47:10.043
89, -468.18, -42.55, 272.52, -3412.40, 0.000, 0.000, 0.000, 17:47:10.043
90, -455.38, -41.91, 231.80, -3392.78, 0.000, 0.000, 0.000, 17:47:10.043
91, -500.02, -62.43, 260.27, -3240.89, 0.000, 0.000, 0.000, 17:47:10.058
92, -526.17, -76.13, 261.77, -3307.06, 0.000, 0.000, 0.000, 17:47:10.058
93, -471.83, -55.40, 246.32, -3408.14, 0.000, 0.000, 0.000, 17:47:10.088
94, -454.90, -44.40, 228.04, -3418.71, 0.000, 0.000, 0.000, 17:47:10.088
95, -504.13, -67.74, 244.65, -3326.61, 0.000, 0.000, 0.000, 17:47:10.088
96, -521.17, -76.93, 268.75, -3289.52, 0.000, 0.000, 0.000, 17:47:10.088
97, -466.07, -40.77, 268.13, -3385.44, 0.000, 0.000, 0.000, 17:47:10.089
98, -457.84, -44.81, 235.38, -3426.86, 0.000, 0.000, 0.000, 17:47:10.089
99, -505.26, -74.57, 252.72, -3298.66, 0.000, 0.000, 0.000, 17:47:10.090
100, -521.85, -76.37, 256.68, -3291.86, 0.000, 0.000, 0.000, 17:47:10.090
101, -487.89, -55.96, 272.25, -3580.25, 0.000, 0.000, 0.000, 17:47:10.103
102, -455.76, -41.28, 229.65, -3436.45, 0.000, 0.000, 0.000, 17:47:10.103
103, -508.18, -71.65, 221.84, -3312.31, 0.000, 0.000, 0.000, 17:47:10.118
104, -530.48, -76.59, 257.59, -3312.30, 0.000, 0.000, 0.000, 17:47:10.118
105, -465.91, -40.86, 268.47, -3406.49, 0.000, 0.000, 0.000, 17:47:10.133
106, -448.99, -37.03, 239.75, -3417.62, 0.000, 0.000, 0.000, 17:47:10.133
107, -512.29, -71.07, 246.12, -3326.07, 0.000, 0.000, 0.000, 17:47:10.133
108, -519.26, -71.99, 271.79, -3248.09, 0.000, 0.000, 0.000, 17:47:10.133
109, -464.83, -39.99, 271.42, -3378.09, 0.000, 0.000, 0.000, 17:47:10.163
110, -461.39, -44.49, 252.73, -3480.63, 0.000, 0.000, 0.000, 17:47:10.163
111, -508.56, -70.59, 245.57, -3298.51, 0.000, 0.000, 0.000, 17:47:10.163
112, -522.10, -77.82, 259.75, -3284.01, 0.000, 0.000, 0.000, 17:47:10.163
113, -472.52, -40.80, 255.91, -3410.05, 0.000, 0.000, 0.000, 17:47:10.164
114, -456.75, -42.82, 236.68, -3409.56, 0.000, 0.000, 0.000, 17:47:10.164
115, -515.39, -72.11, 248.59, -3333.66, 0.000, 0.000, 0.000, 17:47:10.193
116, -530.29, -76.01, 281.46, -3406.76, 0.000, 0.000, 0.000, 17:47:10.193
117, -456.96, -33.37, 262.22, -3404.84, 0.000, 0.000, 0.000, 17:47:10.193
118, -444.97, -33.07, 244.33, -3434.75, 0.000, 0.000, 0.000, 17:47:10.193
119, -498.42, -68.86, 244.28, -3313.01, 0.000, 0.000, 0.000, 17:47:10.194
120, -531.17, -81.36, 271.61, -3237.26, 0.000, 0.000, 0.000, 17:47:10.194
121, -483.49, -53.90, 275.39, -3401.62, 0.000, 0.000, 0.000, 17:47:10.208
122, -467.24, -52.48, 249.39, -3542.13, 0.000, 0.000, 0.000, 17:47:10.208
123, -494.05, -63.75, 247.96, -3311.04, 0.000, 0.000, 0.000, 17:47:10.222
124, -515.14, -66.07, 267.82, -3262.91, 0.000, 0.000, 0.000, 17:47:10.223
125, -463.73, -38.04, 264.51, -3395.49, 0.000, 0.000, 0.000, 17:47:10.223
126, -441.64, -36.32, 228.05, -3436.71, 0.000, 0.000, 0.000, 17:47:10.223
127, -497.00, -63.65, 247.27, -3309.51, 0.000, 0.000, 0.000, 17:47:10.238
128, -522.18, -75.73, 275.08, -3335.64, 0.000, 0.000, 0.000, 17:47:10.238
129, -456.61, -36.06, 266.31, -3385.98, 0.000, 0.000, 0.000, 17:47:10.252
130, -451.05, -36.38, 241.11, -3449.34, 0.000, 0.000, 0.000, 17:47:10.253
131, -501.34, -72.94, 244.32, -3290.98, 0.000, 0.000, 0.000, 17:47:10.253
132, -524.56, -78.94, 253.86, -3210.22, 0.000, 0.000, 0.000, 17:47:10.253
133, -469.15, -40.55, 269.25, -3354.24, 0.000, 0.000, 0.000, 17:47:10.268
134, -465.51, -47.54, 230.52, -3485.11, 0.000, 0.000, 0.000, 17:47:10.268
135, -507.82, -70.52, 238.84, -3295.59, 0.000, 0.000, 0.000, 17:47:10.283
136, -529.20, -82.66, 276.14, -3293.46, 0.000, 0.000, 0.000, 17:47:10.283
137, -475.79, -49.13, 270.82, -3473.51, 0.000, 0.000, 0.000, 17:47:10.283
138, -464.60, -44.61, 236.35, -3441.58, 0.000, 0.000, 0.000, 17:47:10.283
139, -513.19, -76.65, 251.33, -3343.03, 0.000, 0.000, 0.000, 17:47:10.298
140, -535.72, -79.85, 277.90, -3344.04, 0.000, 0.000, 0.000, 17:47:10.298
141, -483.15, -45.81, 265.62, -3382.10, 0.000, 0.000, 0.000, 17:47:10.312
142, -464.30, -43.84, 250.00, -3449.83, 0.000, 0.000, 0.000, 17:47:10.313
143, -512.82, -68.70, 263.52, -3331.43, 0.000, 0.000, 0.000, 17:47:10.313
144, -524.78, -78.32, 269.01, -3241.29, 0.000, 0.000, 0.000, 17:47:10.313
145, -469.61, -43.38, 252.17, -3396.23, 0.000, 0.000, 0.000, 17:47:10.328
146, -454.82, -39.59, 253.16, -3488.21, 0.000, 0.000, 0.000, 17:47:10.328
147, -506.54, -74.56, 242.55, -3285.03, 0.000, 0.000, 0.000, 17:47:10.343
148, -519.30, -69.72, 273.26, -3266.18, 0.000, 0.000, 0.000, 17:47:10.343
149, -480.05, -49.50, 270.38, -3445.31, 0.000, 0.000, 0.000, 17:47:10.343
150, -446.83, -42.20, 235.10, -3419.40, 0.000, 0.000, 0.000, 17:47:10.343
151, -503.99, -74.31, 229.49, -3295.10, 0.000, 0.000, 0.000, 17:47:10.373
152, -531.13, -84.43, 251.57, -3301.16, 0.000, 0.000, 0.000, 17:47:10.373
153, -461.35, -44.63, 260.13, -3329.92, 0.000, 0.000, 0.000, 17:47:10.373
154, -442.91, -30.47, 247.24, -3405.35, 0.000, 0.000, 0.000, 17:47:10.373
155, -503.36, -69.15, 245.27, -3302.95, 0.000, 0.000, 0.000, 17:47:10.374
156, -521.03, -75.15, 269.28, -3268.64, 0.000, 0.000, 0.000, 17:47:10.374
157, -470.50, -41.45, 261.32, -3404.96, 0.000, 0.000, 0.000, 17:47:10.388
158, -463.26, -39.59, 248.50, -3568.42, 0.000, 0.000, 0.000, 17:47:10.388
159, -506.28, -71.34, 251.12, -3302.67, 0.000, 0.000, 0.000, 17:47:10.403
160, -521.55, -76.25, 266.37, -3268.13, 0.000, 0.000, 0.000, 17:47:10.403
161, -473.28, -47.88, 261.22, -3413.06, 0.000, 0.000, 0.000, 17:47:10.403
162, -459.92, -54.87, 241.85, -3405.03, 0.000, 0.000, 0.000, 17:47:10.403
163, -515.75, -82.93, 242.63, -3295.56, 0.000, 0.000, 0.000, 17:47:10.418
164, -529.89, -70.69, 259.02, -3368.96, 0.000, 0.000, 0.000, 17:47:10.418
165, -460.01, -36.02, 270.60, -3362.49, 0.000, 0.000, 0.000, 17:47:10.433
166, -446.74, -33.58, 249.44, -3403.18, 0.000, 0.000, 0.000, 17:47:10.433
167, -509.54, -72.35, 235.94, -3345.90, 0.000, 0.000, 0.000, 17:47:10.433
168, -512.41, -66.44, 264.91, -3218.98, 0.000, 0.000, 0.000, 17:47:10.433
169, -460.83, -40.63, 260.23, -3370.85, 0.000, 0.000, 0.000, 17:47:10.448
170, -451.64, -38.10, 258.19, -3471.10, 0.000, 0.000, 0.000, 17:47:10.448
171, -502.08, -71.71, 267.48, -3313.70, 0.000, 0.000, 0.000, 17:47:10.478
172, -520.79, -76.31, 260.29, -3275.19, 0.000, 0.000, 0.000, 17:47:10.478
173, -476.94, -49.86, 255.79, -3427.38, 0.000, 0.000, 0.000, 17:47:10.478
174, -443.20, -32.08, 251.60, -3415.68, 0.000, 0.000, 0.000, 17:47:10.478
175, -501.39, -72.50, 242.51, -3326.11, 0.000, 0.000, 0.000, 17:47:10.479
176, -518.74, -77.78, 269.28, -3277.83, 0.000, 0.000, 0.000, 17:47:10.479
177, -470.08, -44.02, 265.15, -3387.55, 0.000, 0.000, 0.000, 17:47:10.480
178, -451.38, -37.44, 245.96, -3438.55, 0.000, 0.000, 0.000, 17:47:10.480
179, -530.25, -82.53, 244.92, -3507.20, 0.000, 0.000, 0.000, 17:47:10.493
180, -522.74, -81.27, 252.15, -3267.24, 0.000, 0.000, 0.000, 17:47:10.493
181, -462.70, -39.72, 269.30, -3388.09, 0.000, 0.000, 0.000, 17:47:10.508
182, -454.82, -42.79, 239.20, -3471.90, 0.000, 0.000, 0.000, 17:47:10.508
183, -503.16, -69.78, 235.60, -3275.39, 0.000, 0.000, 0.000, 17:47:10.538
184, -522.04, -74.93, 263.50, -3271.19, 0.000, 0.000, 0.000, 17:47:10.538
185, -473.73, -45.23, 262.34, -3424.22, 0.000, 0.000, 0.000, 17:47:10.538
186, -444.69, -37.34, 249.44, -3409.75, 0.000, 0.000, 0.000, 17:47:10.538
187, -503.58, -74.89, 223.68, -3299.91, 0.000, 0.000, 0.000, 17:47:10.539
188, -521.49, -78.70, 269.67, -3319.64, 0.000, 0.000, 0.000, 17:47:10.539
189, -463.84, -47.54, 265.21, -3382.01, 0.000, 0.000, 0.000, 17:47:10.540
190, -447.99, -40.31, 230.83, -3424.92, 0.000, 0.000, 0.000, 17:47:10.540
191, -514.34, -79.67, 253.31, -3458.32, 0.000, 0.000, 0.000, 17:47:10.553
192, -517.50, -79.70, 253.60, -3227.25, 0.000, 0.000, 0.000, 17:47:10.553
193, -465.63, -43.18, 258.40, -3374.73, 0.000, 0.000, 0.000, 17:47:10.568
194, -452.69, -38.29, 240.73, -3461.78, 0.000, 0.000, 0.000, 17:47:10.568
195, -502.58, -67.31, 246.98, -3281.17, 0.000, 0.000, 0.000, 17:47:10.583
196, -521.69, -77.47, 264.89, -3274.49, 0.000, 0.000, 0.000, 17:47:10.583
197, -474.96, -48.06, 260.41, -3385.20, 0.000, 0.000, 0.000, 17:47:10.583
198, -449.79, -41.88, 238.85, -3441.46, 0.000, 0.000, 0.000, 17:47:10.583
199, -496.29, -69.09, 259.38, -3292.65, 0.000, 0.000, 0.000, 17:47:10.597
200, -524.80, -80.44, 274.79, -3303.76, 0.000, 0.000, 0.000, 17:47:10.598
0, -465.15, -43.11, 273.51, -3366.27, 0.000, 0.000, 0.000, 17:47:10.598
1, -441.34, -32.43, 247.44, -3426.54, 0.000, 0.000, 0.000, 17:47:10.614
2, -503.49, -70.44, 248.99, -3379.26, 0.000, 0.000, 0.000, 17:47:10.614
3, -519.59, -70.31, 267.12, -3275.13, 0.000, 0.000, 0.000, 17:47:10.628
4, -464.35, -40.12, 249.45, -3396.33, 0.000, 0.000, 0.000, 17:47:10.628
5, -451.65, -38.68, 229.54, -3498.93, 0.000, 0.000, 0.000, 17:47:10.628
6, -502.67, -67.91, 241.65, -3324.74, 0.000, 0.000, 0.000, 17:47:10.628
7, -516.59, -75.25, 264.00, -3261.06, 0.000, 0.000, 0.000, 17:47:10.643
8, -470.28, -41.49, 252.99, -3482.10, 0.000, 0.000, 0.000, 17:47:10.643
9, -442.03, -38.38, 230.22, -3456.54, 0.000, 0.000, 0.000, 17:47:10.658
10, -494.85, -69.14, 241.94, -3327.59, 0.000, 0.000, 0.000, 17:47:10.658
11, -519.96, -75.43, 267.21, -3271.82, 0.000, 0.000, 0.000, 17:47:10.658
12, -467.52, -47.15, 265.11, -3372.10, 0.000, 0.000, 0.000, 17:47:10.658
13, -446.18, -38.51, 236.38, -3469.03, 0.000, 0.000, 0.000, 17:47:10.673
14, -512.47, -79.25, 240.06, -3394.26, 0.000, 0.000, 0.000, 17:47:10.673
15, -513.34, -77.20, 259.78, -3246.68, 0.000, 0.000, 0.000, 17:47:10.688
16, -472.99, -51.88, 262.54, -3396.62, 0.000, 0.000, 0.000, 17:47:10.688
17, -446.37, -38.62, 244.21, -3437.92, 0.000, 0.000, 0.000, 17:47:10.688
18, -497.23, -73.11, 236.98, -3277.70, 0.000, 0.000, 0.000, 17:47:10.688
19, -513.26, -65.96, 270.11, -3264.17, 0.000, 0.000, 0.000, 17:47:10.703
20, -471.29, -42.57, 261.42, -3448.94, 0.000, 0.000, 0.000, 17:47:10.703
21, -451.36, -38.29, 226.22, -3416.93, 0.000, 0.000, 0.000, 17:47:10.718
22, -493.68, -64.14, 246.26, -3286.64, 0.000, 0.000, 0.000, 17:47:10.718
23, -520.60, -74.63, 261.00, -3289.06, 0.000, 0.000, 0.000, 17:47:10.718
24, -460.49, -37.78, 278.10, -3396.08, 0.000, 0.000, 0.000, 17:47:10.718
25, -441.40, -30.86, 242.50, -3456.89, 0.000, 0.000, 0.000, 17:47:10.733
26, -507.42, -64.45, 231.26, -3385.55, 0.000, 0.000, 0.000, 17:47:10.733
27, -522.38, -77.51, 255.38, -3265.34, 0.000, 0.000, 0.000, 17:47:10.748
28, -461.01, -36.93, 265.53, -3397.83, 0.000, 0.000, 0.000, 17:47:10.748
29, -448.92, -35.27, 253.24, -3466.34, 0.000, 0.000, 0.000, 17:47:10.748
30, -493.65, -63.68, 264.28, -3283.35, 0.000, 0.000, 0.000, 17:47:10.748
31, -520.11, -74.40, 262.83, -3277.34, 0.000, 0.000, 0.000, 17:47:10.763
32, -483.52, -48.80, 270.04, -3485.62, 0.000, 0.000, 0.000, 17:47:10.763
33, -453.40, -39.73, 244.57, -3396.61, 0.000, 0.000, 0.000, 17:47:10.777
34, -501.90, -68.69, 240.00, -3267.21, 0.000, 0.000, 0.000, 17:47:10.778
35, -530.24, -79.95, 269.31, -3266.22, 0.000, 0.000, 0.000, 17:47:10.778
36, -472.55, -46.28, 260.51, -3394.69, 0.000, 0.000, 0.000, 17:47:10.778
37, -453.29, -41.64, 236.96, -3432.39, 0.000, 0.000, 0.000, 17:47:10.793
38, -513.31, -69.87, 234.82, -3382.31, 0.000, 0.000, 0.000, 17:47:10.793
39, -519.00, -72.13, 263.29, -3227.83, 0.000, 0.000, 0.000, 17:47:10.808
40, -468.46, -39.47, 275.36, -3384.93, 0.000, 0.000, 0.000, 17:47:10.808
41, -449.77, -35.13, 239.20, -3462.60, 0.000, 0.000, 0.000, 17:47:10.808
42, -497.75, -69.33, 234.48, -3305.15, 0.000, 0.000, 0.000, 17:47:10.808
43, -527.22, -82.24, 256.25, -3291.53, 0.000, 0.000, 0.000, 17:47:10.823
44, -478.26, -48.41, 256.33, -3434.41, 0.000, 0.000, 0.000, 17:47:10.823
45, -451.21, -48.17, 234.62, -3436.88, 0.000, 0.000, 0.000, 17:47:10.838
46, -501.47, -72.36, 242.32, -3286.90, 0.000, 0.000, 0.000, 17:47:10.838
47, -520.28, -74.86, 268.70, -3291.60, 0.000, 0.000, 0.000, 17:47:10.838
48, -468.28, -41.64, 255.76, -3362.36, 0.000, 0.000, 0.000, 17:47:10.838
49, -452.36, -35.02, 223.54, -3479.18, 0.000, 0.000, 0.000, 17:47:10.853
50, -511.44, -77.92, 243.59, -3426.18, 0.000, 0.000, 0.000, 17:47:10.853
51, -520.21, -76.09, 262.52, -3241.69, 0.000, 0.000, 0.000, 17:47:10.867
52, -473.66, -44.34, 259.70, -3395.07, 0.000, 0.000, 0.000, 17:47:10.868
53, -453.84, -38.41, 233.78, -3479.90, 0.000, 0.000, 0.000, 17:47:10.868
54, -499.65, -67.42, 251.14, -3299.01, 0.000, 0.000, 0.000, 17:47:10.868
55, -533.29, -77.75, 260.94, -3278.88, 0.000, 0.000, 0.000, 17:47:10.883
56, -481.11, -44.80, 267.46, -3417.69, 0.000, 0.000, 0.000, 17:47:10.883
57, -444.86, -30.18, 245.50, -3388.52, 0.000, 0.000, 0.000, 17:47:10.898
58, -502.42, -64.13, 237.49, -3312.48, 0.000, 0.000, 0.000, 17:47:10.898
59, -521.66, -69.68, 267.54, -3259.67, 0.000, 0.000, 0.000, 17:47:10.898
60, -467.81, -39.72, 266.97, -3353.07, 0.000, 0.000, 0.000, 17:47:10.898
61, -456.37, -40.84, 242.63, -3457.75, 0.000, 0.000, 0.000, 17:47:10.913
62, -515.26, -75.67, 253.23, -3366.34, 0.000, 0.000, 0.000, 17:47:10.913
63, -526.48, -75.84, 274.57, -3230.15, 0.000, 0.000, 0.000, 17:47:10.928
64, -474.81, -44.53, 269.34, -3376.82, 0.000, 0.000, 0.000, 17:47:10.928
65, -460.25, -43.54, 238.90, -3436.15, 0.000, 0.000, 0.000, 17:47:10.928
66, -492.49, -63.48, 243.94, -3291.84, 0.000, 0.000, 0.000, 17:47:10.928
67, -524.87, -74.44, 269.82, -3275.72, 0.000, 0.000, 0.000, 17:47:10.943
68, -484.56, -47.61, 270.61, -3464.90, 0.000, 0.000, 0.000, 17:47:10.943
69, -448.55, -36.65, 246.69, -3426.34, 0.000, 0.000, 0.000, 17:47:10.958
70, -490.74, -57.71, 252.72, -3293.57, 0.000, 0.000, 0.000, 17:47:10.958
71, -534.84, -85.53, 275.08, -3306.31, 0.000, 0.000, 0.000, 17:47:10.958
72, -481.91, -52.85, 247.19, -3400.58, 0.000, 0.000, 0.000, 17:47:10.958
73, -455.77, -36.98, 243.41, -3446.38, 0.000, 0.000, 0.000, 17:47:10.973
74, -519.89, -83.59, 244.85, -3391.42, 0.000, 0.000, 0.000, 17:47:10.973
75, -530.85, -80.50, 272.96, -3264.93, 0.000, 0.000, 0.000, 17:47:10.988
76, -471.40, -38.39, 268.34, -3384.97, 0.000, 0.000, 0.000, 17:47:10.988
77, -450.91, -32.08, 250.82, -3462.41, 0.000, 0.000, 0.000, 17:47:10.988
78, -496.40, -64.47, 248.43, -3320.90, 0.000, 0.000, 0.000, 17:47:10.988
79, -528.26, -74.47, 267.50, -3306.61, 0.000, 0.000, 0.000, 17:47:11.003
80, -484.41, -49.38, 272.84, -3483.20, 0.000, 0.000, 0.000, 17:47:11.003
81, -448.12, -35.30, 236.52, -3459.35, 0.000, 0.000, 0.000, 17:47:11.018
82, -502.85, -68.14, 246.52, -3354.63, 0.000, 0.000, 0.000, 17:47:11.018
83, -536.85, -87.30, 265.83, -3337.96, 0.000, 0.000, 0.000, 17:47:11.018
84, -485.69, -56.27, 261.96, -3430.55, 0.000, 0.000, 0.000, 17:47:11.018
85, -444.11, -40.56, 248.75, -3447.06, 0.000, 0.000, 0.000, 17:47:11.033
86, -509.67, -74.55, 244.34, -3358.40, 0.000, 0.000, 0.000, 17:47:11.033
87, -521.82, -84.29, 268.65, -3219.41, 0.000, 0.000, 0.000, 17:47:11.048
88, -470.81, -52.07, 264.31, -3373.30, 0.000, 0.000, 0.000, 17:47:11.048
89, -455.16, -43.19, 252.10, -3446.39, 0.000, 0.000, 0.000, 17:47:11.048
90, -500.76, -72.80, 237.67, -3306.26, 0.000, 0.000, 0.000, 17:47:11.048
91, -525.63, -84.07, 268.99, -3253.70, 0.000, 0.000, 0.000, 17:47:11.063
92, -481.45, -53.56, 284.88, -3421.89, 0.000, 0.000, 0.000, 17:47:11.063
93, -448.60, -43.90, 236.60, -3391.32, 0.000, 0.000, 0.000, 17:47:11.078
94, -497.39, -73.84, 230.34, -3310.95, 0.000, 0.000, 0.000, 17:47:11.078
95, -532.22, -89.03, 263.88, -3275.02, 0.000, 0.000, 0.000, 17:47:11.078
96, -473.27, -51.58, 260.56, -3353.20, 0.000, 0.000, 0.000, 17:47:11.078
97, -439.67, -30.45, 253.33, -3412.48, 0.000, 0.000, 0.000, 17:47:11.093
98, -510.27, -75.87, 236.20, -3375.39, 0.000, 0.000, 0.000, 17:47:11.093
99, -531.89, -87.50, 259.71, -3261.35, 0.000, 0.000, 0.000, 17:47:11.123
100, -472.21, -48.59, 260.41, -3387.25, 0.000, 0.000, 0.000, 17:47:11.123
101, -451.86, -43.53, 236.56, -3463.83, 0.000, 0.000, 0.000, 17:47:11.123
102, -499.25, -73.26, 243.23, -3271.04, 0.000, 0.000, 0.000, 17:47:11.123
103, -525.31, -85.36, 243.48, -3270.78, 0.000, 0.000, 0.000, 17:47:11.124
104, -467.43, -46.28, 261.14, -3375.09, 0.000, 0.000, 0.000, 17:47:11.124
105, -443.19, -36.00, 241.80, -3426.45, 0.000, 0.000, 0.000, 17:47:11.125
106, -502.60, -74.40, 243.66, -3339.62, 0.000, 0.000, 0.000, 17:47:11.125
107, -548.53, -95.74, 272.95, -3432.48, 0.000, 0.000, 0.000, 17:47:11.138
108, -464.61, -43.33, 280.41, -3347.96, 0.000, 0.000, 0.000, 17:47:11.138
109, -446.78, -36.59, 254.34, -3417.69, 0.000, 0.000, 0.000, 17:47:11.153
110, -501.04, -78.72, 239.32, -3343.17, 0.000, 0.000, 0.000, 17:47:11.153
111, -526.42, -79.95, 266.33, -3225.46, 0.000, 0.000, 0.000, 17:47:11.168
112, -474.01, -55.98, 257.04, -3373.72, 0.000, 0.000, 0.000, 17:47:11.168
113, -443.63, -39.39, 245.21, -3469.87, 0.000, 0.000, 0.000, 17:47:11.168
114, -499.97, -76.14, 232.53, -3311.21, 0.000, 0.000, 0.000, 17:47:11.168
115, -528.92, -82.92, 263.70, -3287.44, 0.000, 0.000, 0.000, 17:47:11.183
116, -479.27, -47.90, 278.69, -3429.25, 0.000, 0.000, 0.000, 17:47:11.183
117, -446.47, -39.85, 247.07, -3429.23, 0.000, 0.000, 0.000, 17:47:11.197
118, -496.27, -69.92, 244.78, -3283.76, 0.000, 0.000, 0.000, 17:47:11.198
119, -520.61, -70.75, 279.56, -3243.71, 0.000, 0.000, 0.000, 17:47:11.198
120, -465.35, -43.04, 268.13, -3312.80, 0.000, 0.000, 0.000, 17:47:11.198
121, -449.22, -36.00, 247.78, -3418.10, 0.000, 0.000, 0.000, 17:47:11.213
122, -496.41, -59.17, 249.22, -3350.85, 0.000, 0.000, 0.000, 17:47:11.214
123, -507.30, -69.13, 268.93, -3224.71, 0.000, 0.000, 0.000, 17:47:11.228
124, -466.98, -43.75, 261.54, -3357.47, 0.000, 0.000, 0.000, 17:47:11.228
125, -448.44, -40.05, 253.54, -3424.60, 0.000, 0.000, 0.000, 17:47:11.228
126, -486.33, -63.01, 239.08, -3298.35, 0.000, 0.000, 0.000, 17:47:11.228
127, -520.55, -79.62, 277.50, -3285.51, 0.000, 0.000, 0.000, 17:47:11.243
128, -486.33, -57.24, 264.10, -3460.90, 0.000, 0.000, 0.000, 17:47:11.243
129, -447.48, -35.70, 241.36, -3417.81, 0.000, 0.000, 0.000, 17:47:11.257
130, -500.52, -68.71, 237.45, -3312.80, 0.000, 0.000, 0.000, 17:47:11.258
131, -525.14, -74.96, 260.54, -3270.48, 0.000, 0.000, 0.000, 17:47:11.258
132, -473.79, -38.35, 272.74, -3347.65, 0.000, 0.000, 0.000, 17:47:11.258
133, -448.39, -33.51, 257.75, -3427.45, 0.000, 0.000, 0.000, 17:47:11.273
134, -507.18, -71.88, 246.76, -3348.17, 0.000, 0.000, 0.000, 17:47:11.273
135, -527.69, -78.58, 259.82, -3259.21, 0.000, 0.000, 0.000, 17:47:11.287
136, -473.01, -46.94, 273.26, -3391.41, 0.000, 0.000, 0.000, 17:47:11.288
137, -453.80, -35.19, 260.39, -3456.33, 0.000, 0.000, 0.000, 17:47:11.288
138, -503.43, -72.54, 236.25, -3300.65, 0.000, 0.000, 0.000, 17:47:11.288
139, -531.44, -80.81, 260.89, -3235.75, 0.000, 0.000, 0.000, 17:47:11.303
140, -485.16, -53.53, 268.79, -3438.35, 0.000, 0.000, 0.000, 17:47:11.303
141, -439.25, -30.75, 251.90, -3406.80, 0.000, 0.000, 0.000, 17:47:11.318
142, -493.97, -67.06, 242.38, -3323.07, 0.000, 0.000, 0.000, 17:47:11.318
143, -520.36, -78.87, 277.49, -3267.92, 0.000, 0.000, 0.000, 17:47:11.318
144, -472.37, -49.05, 266.04, -3357.87, 0.000, 0.000, 0.000, 17:47:11.318
145, -444.38, -34.07, 246.63, -3443.77, 0.000, 0.000, 0.000, 17:47:11.333
146, -510.81, -80.91, 251.11, -3415.30, 0.000, 0.000, 0.000, 17:47:11.333
147, -520.51, -80.43, 266.61, -3276.64, 0.000, 0.000, 0.000, 17:47:11.348
148, -470.91, -44.78, 273.14, -3417.94, 0.000, 0.000, 0.000, 17:47:11.348
149, -440.39, -36.12, 240.43, -3481.78, 0.000, 0.000, 0.000, 17:47:11.348
150, -492.63, -68.47, 225.90, -3309.50, 0.000, 0.000, 0.000, 17:47:11.348
151, -509.88, -68.62, 269.36, -3285.89, 0.000, 0.000, 0.000, 17:47:11.368
152, -476.19, -47.70, 280.47, -3445.77, 0.000, 0.000, 0.000, 17:47:11.369
153, -428.80, -24.35, 250.66, -3425.77, 0.000, 0.000, 0.000, 17:47:11.377
154, -487.82, -61.08, 254.03, -3327.61, 0.000, 0.000, 0.000, 17:47:11.378
155, -526.60, -82.57, 250.33, -3284.79, 0.000, 0.000, 0.000, 17:47:11.378
156, -462.75, -41.00, 256.04, -3360.12, 0.000, 0.000, 0.000, 17:47:11.379
157, -449.52, -36.82, 230.88, -3484.75, 0.000, 0.000, 0.000, 17:47:11.393
158, -498.55, -65.09, 247.26, -3362.49, 0.000, 0.000, 0.000, 17:47:11.393
159, -507.99, -66.73, 269.46, -3211.34, 0.000, 0.000, 0.000, 17:47:11.408
160, -463.01, -44.42, 275.43, -3386.96, 0.000, 0.000, 0.000, 17:47:11.408
161, -442.90, -37.00, 236.52, -3448.41, 0.000, 0.000, 0.000, 17:47:11.409
162, -508.14, -75.96, 245.76, -3290.88, 0.000, 0.000, 0.000, 17:47:11.409
163, -533.16, -89.97, 259.00, -3290.04, 0.000, 0.000, 0.000, 17:47:11.438
164, -468.11, -49.02, 254.94, -3479.50, 0.000, 0.000, 0.000, 17:47:11.438
165, -439.26, -28.46, 242.40, -3426.74, 0.000, 0.000, 0.000, 17:47:11.438
166, -485.72, -58.98, 256.54, -3322.87, 0.000, 0.000, 0.000, 17:47:11.438
167, -512.51, -76.42, 254.99, -3264.41, 0.000, 0.000, 0.000, 17:47:11.439
168, -450.86, -37.51, 267.85, -3355.47, 0.000, 0.000, 0.000, 17:47:11.439
169, -427.02, -28.65, 243.56, -3443.08, 0.000, 0.000, 0.000, 17:47:11.453
170, -495.20, -67.53, 250.84, -3434.55, 0.000, 0.000, 0.000, 17:47:11.453
171, -516.34, -76.26, 263.74, -3259.32, 0.000, 0.000, 0.000, 17:47:11.468
172, -459.87, -35.60, 272.40, -3385.74, 0.000, 0.000, 0.000, 17:47:11.468
173, -443.62, -29.82, 252.09, -3482.26, 0.000, 0.000, 0.000, 17:47:11.468
174, -488.23, -64.37, 246.64, -3310.27, 0.000, 0.000, 0.000, 17:47:11.468
175, -523.46, -77.00, 262.61, -3265.73, 0.000, 0.000, 0.000, 17:47:11.483
176, -472.22, -47.11, 274.18, -3409.95, 0.000, 0.000, 0.000, 17:47:11.483
177, -440.17, -34.56, 249.69, -3409.40, 0.000, 0.000, 0.000, 17:47:11.498
178, -497.48, -71.14, 229.44, -3334.85, 0.000, 0.000, 0.000, 17:47:11.498
179, -519.53, -76.16, 272.00, -3265.60, 0.000, 0.000, 0.000, 17:47:11.498
180, -465.68, -42.12, 276.25, -3354.65, 0.000, 0.000, 0.000, 17:47:11.498
181, -440.82, -28.78, 248.52, -3437.33, 0.000, 0.000, 0.000, 17:47:11.513
182, -492.92, -60.16, 253.28, -3372.31, 0.000, 0.000, 0.000, 17:47:11.513
183, -513.19, -73.13, 266.19, -3218.61, 0.000, 0.000, 0.000, 17:47:11.527
184, -473.66, -48.86, 257.49, -3356.00, 0.000, 0.000, 0.000, 17:47:11.528
185, -439.88, -30.14, 252.44, -3453.64, 0.000, 0.000, 0.000, 17:47:11.528
186, -489.34, -65.98, 241.88, -3314.06, 0.000, 0.000, 0.000, 17:47:11.528
187, -513.36, -70.40, 276.42, -3251.76, 0.000, 0.000, 0.000, 17:47:11.543
188, -477.18, -48.80, 277.61, -3418.84, 0.000, 0.000, 0.000, 17:47:11.543
189, -421.34, -10.03, 247.64, -3397.09, 0.000, 0.000, 0.000, 17:47:11.558
190, -469.23, -46.17, 254.61, -3299.82, 0.000, 0.000, 0.000, 17:47:11.558
191, -509.83, -59.32, 276.18, -3239.53, 0.000, 0.000, 0.000, 17:47:11.558
192, -446.37, -17.42, 291.48, -3321.11, 0.000, 0.000, 0.000, 17:47:11.558
193, -417.80, -17.43, 259.08, -3427.37, 0.000, 0.000, 0.000, 17:47:11.573
194, -480.56, -48.10, 255.15, -3353.19, 0.000, 0.000, 0.000, 17:47:11.573
195, -493.45, -54.45, 279.39, -3203.17, 0.000, 0.000, 0.000, 17:47:11.588
196, -456.80, -28.75, 286.22, -3351.24, 0.000, 0.000, 0.000, 17:47:11.588
197, -418.58, -3.96, 277.94, -3430.20, 0.000, 0.000, 0.000, 17:47:11.588
198, -480.78, -51.09, 254.51, -3288.41, 0.000, 0.000, 0.000, 17:47:11.588
199, -507.14, -67.16, 278.17, -3246.22, 0.000, 0.000, 0.000, 17:47:11.603
200, -460.57, -29.75, 300.11, -3420.00, 0.000, 0.000, 0.000, 17:47:11.603
0, -424.64, -16.70, 273.27, -3412.61, 0.000, 0.000, 0.000, 17:47:11.603
1, -473.98, -48.54, 283.97, -3292.58, 0.000, 0.000, 0.000, 17:47:11.618
2, -516.91, -71.64, 276.54, -3288.10, 0.000, 0.000, 0.000, 17:47:11.618
3, -459.08, -29.81, 284.63, -3342.77, 0.000, 0.000, 0.000, 17:47:11.634
4, -433.73, -22.64, 255.94, -3429.65, 0.000, 0.000, 0.000, 17:47:11.634
5, -493.41, -56.03, 254.23, -3350.68, 0.000, 0.000, 0.000, 17:47:11.634
6, -510.25, -66.13, 272.07, -3209.16, 0.000, 0.000, 0.000, 17:47:11.634
7, -458.94, -25.38, 292.47, -3373.53, 0.000, 0.000, 0.000, 17:47:11.648
8, -438.08, -17.31, 276.46, -3476.34, 0.000, 0.000, 0.000, 17:47:11.648
9, -480.11, -51.46, 274.30, -3299.05, 0.000, 0.000, 0.000, 17:47:11.663
10, -516.94, -79.56, 289.88, -3218.19, 0.000, 0.000, 0.000, 17:47:11.663
11, -484.80, -54.68, 282.11, -3391.24, 0.000, 0.000, 0.000, 17:47:11.663
12, -439.71, -16.72, 238.07, -3440.95, 0.000, 0.000, 0.000, 17:47:11.663
13, -470.82, -35.89, 245.54, -3347.42, 0.000, 0.000, 0.000, 17:47:11.678
14, -519.21, -62.07, 273.00, -3328.76, 0.000, 0.000, 0.000, 17:47:11.678
15, -466.20, -29.49, 271.57, -3374.09, 0.000, 0.000, 0.000, 17:47:11.696
16, -438.16, -20.05, 250.00, -3479.45, 0.000, 0.000, 0.000, 17:47:11.696
17, -482.42, -45.28, 239.40, -3379.71, 0.000, 0.000, 0.000, 17:47:11.696
18, -518.15, -73.38, 254.09, -3265.98, 0.000, 0.000, 0.000, 17:47:11.696
19, -468.81, -35.33, 273.55, -3379.89, 0.000, 0.000, 0.000, 17:47:11.708
20, -447.15, -27.75, 256.43, -3506.46, 0.000, 0.000, 0.000, 17:47:11.708
21, -492.54, -60.16, 245.73, -3336.13, 0.000, 0.000, 0.000, 17:47:11.723
22, -521.71, -71.97, 270.08, -3293.72, 0.000, 0.000, 0.000, 17:47:11.723
23, -482.02, -45.23, 280.14, -3386.16, 0.000, 0.000, 0.000, 17:47:11.723
24, -443.53, -28.02, 248.36, -3431.32, 0.000, 0.000, 0.000, 17:47:11.723
25, -495.06, -66.26, 233.73, -3342.94, 0.000, 0.000, 0.000, 17:47:11.738
26, -529.95, -81.06, 263.67, -3297.00, 0.000, 0.000, 0.000, 17:47:11.738
27, -461.45, -40.43, 258.77, -3312.22, 0.000, 0.000, 0.000, 17:47:11.752
28, -444.15, -34.67, 244.39, -3445.19, 0.000, 0.000, 0.000, 17:47:11.753
29, -494.71, -64.35, 240.76, -3316.48, 0.000, 0.000, 0.000, 17:47:11.753
30, -529.03, -87.66, 253.17, -3229.57, 0.000, 0.000, 0.000, 17:47:11.753
31, -470.59, -38.67, 278.22, -3344.76, 0.000, 0.000, 0.000, 17:47:11.768
32, -443.98, -31.44, 258.14, -3461.74, 0.000, 0.000, 0.000, 17:47:11.768
33, -482.27, -53.53, 244.73, -3292.51, 0.000, 0.000, 0.000, 17:47:11.783
34, -518.41, -77.90, 258.55, -3235.34, 0.000, 0.000, 0.000, 17:47:11.783
35, -469.70, -40.97, 271.88, -3352.60, 0.000, 0.000, 0.000, 17:47:11.783
36, -437.37, -28.58, 241.31, -3392.55, 0.000, 0.000, 0.000, 17:47:11.783
37, -480.93, -57.78, 251.21, -3314.04, 0.000, 0.000, 0.000, 17:47:11.798
38, -529.46, -80.92, 269.99, -3323.76, 0.000, 0.000, 0.000, 17:47:11.798
39, -468.67, -41.71, 276.19, -3343.78, 0.000, 0.000, 0.000, 17:47:11.813
40, -444.52, -33.87, 246.38, -3456.52, 0.000, 0.000, 0.000, 17:47:11.813
41, -484.91, -59.01, 254.51, -3313.26, 0.000, 0.000, 0.000, 17:47:11.813
42, -518.79, -77.78, 261.48, -3225.05, 0.000, 0.000, 0.000, 17:47:11.813
43, -474.26, -47.31, 269.76, -3378.47, 0.000, 0.000, 0.000, 17:47:11.828
44, -457.23, -41.82, 251.56, -3513.33, 0.000, 0.000, 0.000, 17:47:11.828
45, -492.72, -63.64, 251.67, -3321.15, 0.000, 0.000, 0.000, 17:47:11.843
46, -518.34, -78.46, 269.21, -3254.43, 0.000, 0.000, 0.000, 17:47:11.843
47, -476.72, -49.20, 286.86, -3402.48, 0.000, 0.000, 0.000, 17:47:11.843
48, -453.09, -36.90, 247.59, -3435.12, 0.000, 0.000, 0.000, 17:47:11.843
49, -499.72, -70.72, 238.08, -3328.09, 0.000, 0.000, 0.000, 17:47:11.858
50, -529.54, -76.19, 269.01, -3309.28, 0.000, 0.000, 0.000, 17:47:11.858
51, -475.98, -45.15, 269.08, -3337.46, 0.000, 0.000, 0.000, 17:47:11.873
52, -443.00, -22.30, 233.20, -3440.45, 0.000, 0.000, 0.000, 17:47:11.873
53, -497.35, -60.55, 237.80, -3340.37, 0.000, 0.000, 0.000, 17:47:11.873
54, -521.34, -69.65, 268.34, -3235.82, 0.000, 0.000, 0.000, 17:47:11.873
55, -467.16, -38.57, 278.43, -3376.59, 0.000, 0.000, 0.000, 17:47:11.888
56, -452.03, -32.18, 255.06, -3489.22, 0.000, 0.000, 0.000, 17:47:11.888
57, -489.28, -56.61, 244.76, -3325.55, 0.000, 0.000, 0.000, 17:47:11.903
58, -523.66, -77.03, 250.97, -3262.41, 0.000, 0.000, 0.000, 17:47:11.903
59, -473.69, -41.19, 276.10, -3359.32, 0.000, 0.000, 0.000, 17:47:11.903
60, -430.88, -23.62, 256.19, -3391.00, 0.000, 0.000, 0.000, 17:47:11.903
61, -491.71, -66.52, 240.49, -3316.67, 0.000, 0.000, 0.000, 17:47:11.918
62, -523.06, -72.80, 276.63, -3286.24, 0.000, 0.000, 0.000, 17:47:11.918
63, -466.14, -33.84, 281.26, -3345.35, 0.000, 0.000, 0.000, 17:47:11.933
64, -440.22, -25.06, 259.89, -3476.92, 0.000, 0.000, 0.000, 17:47:11.933
65, -493.07, -56.08, 259.20, -3362.47, 0.000, 0.000, 0.000, 17:47:11.933
66, -520.75, -73.24, 269.54, -3233.71, 0.000, 0.000, 0.000, 17:47:11.933
67, -470.51, -40.91, 275.01, -3349.01, 0.000, 0.000, 0.000, 17:47:11.948
68, -443.16, -27.50, 262.86, -3479.84, 0.000, 0.000, 0.000, 17:47:11.948
69, -486.21, -58.79, 235.00, -3277.41, 0.000, 0.000, 0.000, 17:47:11.963
70, -511.73, -68.01, 247.06, -3232.46, 0.000, 0.000, 0.000, 17:47:11.963
71, -471.06, -39.02, 265.38, -3375.93, 0.000, 0.000, 0.000, 17:47:11.963
72, -435.86, -23.32, 244.72, -3421.08, 0.000, 0.000, 0.000, 17:47:11.963
73, -486.99, -58.91, 237.95, -3357.00, 0.000, 0.000, 0.000, 17:47:11.978
74, -529.10, -77.32, 280.37, -3358.13, 0.000, 0.000, 0.000, 17:47:11.978
75, -474.76, -47.00, 265.34, -3354.81, 0.000, 0.000, 0.000, 17:47:11.993
76, -445.18, -29.71, 252.82, -3458.90, 0.000, 0.000, 0.000, 17:47:11.993
77, -493.42, -61.22, 254.17, -3372.26, 0.000, 0.000, 0.000, 17:47:11.993
78, -523.94, -73.46, 271.11, -3272.52, 0.000, 0.000, 0.000, 17:47:11.993
79, -485.71, -50.06, 262.28, -3424.59, 0.000, 0.000, 0.000, 17:47:12.008
80, -456.68, -32.54, 253.61, -3541.52, 0.000, 0.000, 0.000, 17:47:12.008
81, -482.32, -49.99, 248.13, -3334.46, 0.000, 0.000, 0.000, 17:47:12.023
82, -521.00, -68.91, 264.50, -3281.96, 0.000, 0.000, 0.000, 17:47:12.023
83, -475.96, -38.94, 277.81, -3395.02, 0.000, 0.000, 0.000, 17:47:12.023
84, -437.54, -26.66, 243.70, -3391.44, 0.000, 0.000, 0.000, 17:47:12.023
85, -486.89, -63.14, 246.65, -3316.50, 0.000, 0.000, 0.000, 17:47:12.038
86, -520.36, -76.42, 276.66, -3285.95, 0.000, 0.000, 0.000, 17:47:12.038
87, -466.72, -45.55, 259.48, -3336.41, 0.000, 0.000, 0.000, 17:47:12.053
88, -434.59, -23.84, 242.90, -3441.06, 0.000, 0.000, 0.000, 17:47:12.053
89, -487.14, -60.24, 239.15, -3366.18, 0.000, 0.000, 0.000, 17:47:12.053
90, -518.69, -76.08, 262.05, -3215.21, 0.000, 0.000, 0.000, 17:47:12.053
91, -476.09, -47.08, 275.44, -3368.31, 0.000, 0.000, 0.000, 17:47:12.083
92, -449.63, -30.54, 247.68, -3496.40, 0.000, 0.000, 0.000, 17:47:12.083
93, -485.58, -59.78, 239.92, -3305.92, 0.000, 0.000, 0.000, 17:47:12.083
94, -523.68, -75.15, 271.24, -3244.28, 0.000, 0.000, 0.000, 17:47:12.083
95, -476.39, -42.11, 277.09, -3334.73, 0.000, 0.000, 0.000, 17:47:12.084
96, -439.98, -25.84, 253.58, -3408.76, 0.000, 0.000, 0.000, 17:47:12.084
97, -478.94, -50.17, 262.32, -3331.77, 0.000, 0.000, 0.000, 17:47:12.098
98, -531.80, -81.41, 280.61, -3362.72, 0.000, 0.000, 0.000, 17:47:12.098
99, -482.21, -51.77, 256.04, -3369.65, 0.000, 0.000, 0.000, 17:47:12.113
100, -441.35, -32.09, 239.92, -3419.58, 0.000, 0.000, 0.000, 17:47:12.113
101, -487.06, -58.61, 239.99, -3348.13, 0.000, 0.000, 0.000, 17:47:12.113
102, -517.01, -70.00, 262.01, -3241.07, 0.000, 0.000, 0.000, 17:47:12.113
103, -479.57, -45.66, 266.28, -3370.42, 0.000, 0.000, 0.000, 17:47:12.128
104, -461.81, -41.63, 254.63, -3516.36, 0.000, 0.000, 0.000, 17:47:12.128
105, -497.88, -60.13, 237.79, -3355.33, 0.000, 0.000, 0.000, 17:47:12.143
106, -518.34, -69.79, 256.00, -3253.27, 0.000, 0.000, 0.000, 17:47:12.143
107, -477.49, -43.34, 264.97, -3370.21, 0.000, 0.000, 0.000, 17:47:12.143
108, -437.22, -25.29, 246.72, -3364.17, 0.000, 0.000, 0.000, 17:47:12.143
109, -484.92, -61.47, 236.03, -3316.26, 0.000, 0.000, 0.000, 17:47:12.158
110, -534.67, -86.58, 262.85, -3336.08, 0.000, 0.000, 0.000, 17:47:12.158
111, -482.11, -53.21, 272.08, -3373.44, 0.000, 0.000, 0.000, 17:47:12.173
112, -438.41, -26.46, 258.74, -3444.43, 0.000, 0.000, 0.000, 17:47:12.173
113, -488.11, -59.66, 247.20, -3336.01, 0.000, 0.000, 0.000, 17:47:12.173
114, -520.53, -75.90, 246.71, -3216.84, 0.000, 0.000, 0.000, 17:47:12.173
115, -477.01, -44.20, 266.23, -3326.00, 0.000, 0.000, 0.000, 17:47:12.188
116, -446.33, -31.54, 249.91, -3487.06, 0.000, 0.000, 0.000, 17:47:12.188
117, -481.13, -54.57, 228.30, -3321.38, 0.000, 0.000, 0.000, 17:47:12.203
118, -519.41, -78.10, 258.85, -3282.03, 0.000, 0.000, 0.000, 17:47:12.203
119, -475.39, -40.42, 267.23, -3422.98, 0.000, 0.000, 0.000, 17:47:12.203
120, -439.94, -28.43, 242.73, -3473.08, 0.000, 0.000, 0.000, 17:47:12.203
121, -486.48, -60.92, 240.37, -3352.97, 0.000, 0.000, 0.000, 17:47:12.218
122, -529.96, -81.34, 257.26, -3336.43, 0.000, 0.000, 0.000, 17:47:12.218
123, -484.27, -49.48, 258.51, -3355.15, 0.000, 0.000, 0.000, 17:47:12.233
124, -443.40, -29.66, 249.77, -3464.48, 0.000, 0.000, 0.000, 17:47:12.233
125, -496.19, -65.66, 236.82, -3379.32, 0.000, 0.000, 0.000, 17:47:12.233
126, -525.81, -77.28, 265.60, -3249.62, 0.000, 0.000, 0.000, 17:47:12.233
127, -490.22, -54.63, 269.78, -3388.67, 0.000, 0.000, 0.000, 17:47:12.248
128, -452.24, -34.09, 269.52, -3498.38, 0.000, 0.000, 0.000, 17:47:12.248
129, -494.67, -69.30, 234.97, -3303.29, 0.000, 0.000, 0.000, 17:47:12.262
130, -528.35, -87.11, 254.82, -3226.56, 0.000, 0.000, 0.000, 17:47:12.263
131, -481.79, -46.35, 287.36, -3400.00, 0.000, 0.000, 0.000, 17:47:12.263
132, -446.88, -28.36, 254.66, -3414.67, 0.000, 0.000, 0.000, 17:47:12.263
133, -482.40, -51.79, 239.90, -3307.84, 0.000, 0.000, 0.000, 17:47:12.278
134, -526.39, -76.80, 264.61, -3268.81, 0.000, 0.000, 0.000, 17:47:12.278
135, -477.59, -47.34, 262.36, -3356.07, 0.000, 0.000, 0.000, 17:47:12.292
136, -451.27, -35.06, 243.49, -3476.84, 0.000, 0.000, 0.000, 17:47:12.293
137, -494.38, -59.72, 244.30, -3368.16, 0.000, 0.000, 0.000, 17:47:12.293
138, -533.72, -77.41, 262.40, -3280.59, 0.000, 0.000, 0.000, 17:47:12.293
139, -476.49, -40.91, 271.33, -3365.74, 0.000, 0.000, 0.000, 17:47:12.308
140, -449.16, -32.10, 248.23, -3514.98, 0.000, 0.000, 0.000, 17:47:12.308
141, -482.35, -59.06, 230.51, -3328.97, 0.000, 0.000, 0.000, 17:47:12.323
142, -522.84, -79.66, 246.93, -3278.57, 0.000, 0.000, 0.000, 17:47:12.323
143, -482.89, -55.41, 258.31, -3414.48, 0.000, 0.000, 0.000, 17:47:12.323
144, -441.90, -33.92, 238.14, -3440.35, 0.000, 0.000, 0.000, 17:47:12.323
145, -479.08, -54.13, 244.00, -3327.38, 0.000, 0.000, 0.000, 17:47:12.338
146, -518.39, -69.81, 265.62, -3295.99, 0.000, 0.000, 0.000, 17:47:12.338
147, -480.26, -45.56, 270.62, -3361.45, 0.000, 0.000, 0.000, 17:47:12.352
148, -450.63, -29.74, 247.53, -3476.40, 0.000, 0.000, 0.000, 17:47:12.353
149, -490.56, -55.79, 245.53, -3344.71, 0.000, 0.000, 0.000, 17:47:12.353
150, -519.24, -69.71, 250.71, -3236.81, 0.000, 0.000, 0.000, 17:47:12.353
151, -481.51, -50.68, 261.44, -3382.80, 0.000, 0.000, 0.000, 17:47:12.368
152, -451.56, -29.30, 248.85, -3526.40, 0.000, 0.000, 0.000, 17:47:12.368
153, -483.92, -58.63, 229.00, -3353.62, 0.000, 0.000, 0.000, 17:47:12.398
154, -521.01, -71.27, 258.17, -3263.74, 0.000, 0.000, 0.000, 17:47:12.398
155, -479.29, -43.84, 270.82, -3364.69, 0.000, 0.000, 0.000, 17:47:12.398
156, -448.40, -33.37, 239.46, -3449.39, 0.000, 0.000, 0.000, 17:47:12.398
157, -481.90, -61.35, 244.27, -3341.48, 0.000, 0.000, 0.000, 17:47:12.399
158, -527.84, -80.59, 251.47, -3235.88, 0.000, 0.000, 0.000, 17:47:12.399
159, -481.95, -50.83, 251.03, -3364.55, 0.000, 0.000, 0.000, 17:47:12.400
160, -450.22, -38.07, 239.14, -3472.56, 0.000, 0.000, 0.000, 17:47:12.400
161, -511.27, -78.11, 251.90, -3546.15, 0.000, 0.000, 0.000, 17:47:12.413
162, -525.84, -75.23, 257.15, -3226.14, 0.000, 0.000, 0.000, 17:47:12.413
163, -484.66, -48.32, 257.74, -3367.03, 0.000, 0.000, 0.000, 17:47:12.428
164, -448.30, -34.99, 238.45, -3457.72, 0.000, 0.000, 0.000, 17:47:12.428
165, -494.21, -62.65, 236.33, -3331.18, 0.000, 0.000, 0.000, 17:47:12.443
166, -533.39, -80.29, 259.50, -3272.17, 0.000, 0.000, 0.000, 17:47:12.443
167, -496.72, -59.59, 243.13, -3406.39, 0.000, 0.000, 0.000, 17:47:12.443
168, -446.76, -32.41, 235.45, -3448.63, 0.000, 0.000, 0.000, 17:47:12.443
169, -499.34, -67.61, 229.00, -3345.42, 0.000, 0.000, 0.000, 17:47:12.458
170, -543.20, -85.70, 251.79, -3333.78, 0.000, 0.000, 0.000, 17:47:12.458
171, -489.13, -56.92, 257.56, -3358.80, 0.000, 0.000, 0.000, 17:47:12.473
172, -458.52, -38.95, 240.19, -3469.06, 0.000, 0.000, 0.000, 17:47:12.473
173, -495.93, -66.00, 230.16, -3343.45, 0.000, 0.000, 0.000, 17:47:12.473
174, -527.19, -81.53, 253.57, -3225.46, 0.000, 0.000, 0.000, 17:47:12.473
175, -490.40, -54.06, 264.92, -3392.45, 0.000, 0.000, 0.000, 17:47:12.488
176, -465.45, -46.76, 237.28, -3549.84, 0.000, 0.000, 0.000, 17:47:12.488
177, -495.68, -65.85, 232.23, -3330.66, 0.000, 0.000, 0.000, 17:47:12.503
178, -530.98, -80.06, 258.61, -3266.10, 0.000, 0.000, 0.000, 17:47:12.503
179, -495.31, -60.15, 270.57, -3394.61, 0.000, 0.000, 0.000, 17:47:12.503
180, -458.21, -41.12, 250.12, -3432.88, 0.000, 0.000, 0.000, 17:47:12.503
181, -499.38, -69.22, 240.39, -3350.14, 0.000, 0.000, 0.000, 17:47:12.518
182, -532.03, -81.17, 261.08, -3313.97, 0.000, 0.000, 0.000, 17:47:12.518
183, -479.49, -48.95, 265.83, -3357.36, 0.000, 0.000, 0.000, 17:47:12.533
184, -445.56, -31.28, 257.45, -3433.58, 0.000, 0.000, 0.000, 17:47:12.533
185, -493.45, -67.42, 242.71, -3335.75, 0.000, 0.000, 0.000, 17:47:12.533
186, -535.64, -86.57, 237.57, -3222.80, 0.000, 0.000, 0.000, 17:47:12.533
187, -484.21, -45.94, 273.64, -3349.30, 0.000, 0.000, 0.000, 17:47:12.548
188, -461.48, -39.85, 256.76, -3515.94, 0.000, 0.000, 0.000, 17:47:12.548
189, -487.83, -61.18, 229.10, -3353.14, 0.000, 0.000, 0.000, 17:47:12.563
190, -529.63, -81.45, 252.25, -3266.34, 0.000, 0.000, 0.000, 17:47:12.563
191, -496.15, -61.68, 272.68, -3391.24, 0.000, 0.000, 0.000, 17:47:12.563
192, -455.70, -35.35, 258.87, -3430.21, 0.000, 0.000, 0.000, 17:47:12.563
193, -488.96, -64.45, 244.72, -3318.49, 0.000, 0.000, 0.000, 17:47:12.578
194, -530.52, -83.38, 263.21, -3281.54, 0.000, 0.000, 0.000, 17:47:12.578
195, -485.43, -49.27, 261.33, -3338.60, 0.000, 0.000, 0.000, 17:47:12.593
196, -447.72, -32.56, 254.83, -3466.51, 0.000, 0.000, 0.000, 17:47:12.593
197, -492.29, -68.46, 229.50, -3358.57, 0.000, 0.000, 0.000, 17:47:12.593
198, -519.70, -75.24, 254.12, -3236.35, 0.000, 0.000, 0.000, 17:47:12.593
199, -488.53, -52.56, 267.80, -3379.80, 0.000, 0.000, 0.000, 17:47:12.608
200, -453.89, -32.14, 250.73, -3526.25, 0.000, 0.000, 0.000, 17:47:12.608
0, -479.72, -52.14, 243.83, -3358.25, 0.000, 0.000, 0.000, 17:47:12.608
1, -521.42, -74.95, 271.19, -3275.79, 0.000, 0.000, 0.000, 17:47:12.623
2, -489.85, -47.25, 279.37, -3401.27, 0.000, 0.000, 0.000, 17:47:12.623
3, -446.39, -33.65, 218.53, -3423.28, 0.000, 0.000, 0.000, 17:47:12.638
4, -489.41, -57.79, 223.14, -3344.04, 0.000, 0.000, 0.000, 17:47:12.638
5, -521.44, -72.93, 249.02, -3268.50, 0.000, 0.000, 0.000, 17:47:12.638
6, -480.49, -50.80, 262.71, -3343.59, 0.000, 0.000, 0.000, 17:47:12.638
7, -447.32, -35.53, 244.77, -3454.20, 0.000, 0.000, 0.000, 17:47:12.653
8, -493.90, -60.12, 245.03, -3410.44, 0.000, 0.000, 0.000, 17:47:12.653
9, -527.95, -78.03, 248.49, -3251.30, 0.000, 0.000, 0.000, 17:47:12.668
10, -488.08, -54.27, 267.15, -3379.69, 0.000, 0.000, 0.000, 17:47:12.668
11, -438.19, -25.11, 257.55, -3475.37, 0.000, 0.000, 0.000, 17:47:12.668
12, -476.26, -57.01, 238.84, -3345.32, 0.000, 0.000, 0.000, 17:47:12.668
13, -525.69, -78.26, 268.40, -3311.36, 0.000, 0.000, 0.000, 17:47:12.683
14, -491.69, -55.06, 272.69, -3458.26, 0.000, 0.000, 0.000, 17:47:12.683
15, -446.44, -33.35, 239.10, -3450.44, 0.000, 0.000, 0.000, 17:47:12.698
16, -485.41, -55.65, 249.10, -3361.25, 0.000, 0.000, 0.000, 17:47:12.698
17, -531.57, -78.85, 272.74, -3276.42, 0.000, 0.000, 0.000, 17:47:12.698
18, -488.39, -52.49, 272.40, -3344.23, 0.000, 0.000, 0.000, 17:47:12.699
19, -445.32, -29.20, 257.00, -3432.81, 0.000, 0.000, 0.000, 17:47:12.713
20, -495.67, -60.24, 259.64, -3413.37, 0.000, 0.000, 0.000, 17:47:12.713
21, -519.83, -69.44, 260.36, -3227.63, 0.000, 0.000, 0.000, 17:47:12.728
22, -481.12, -43.91, 268.84, -3348.08, 0.000, 0.000, 0.000, 17:47:12.728
23, -456.18, -36.03, 230.29, -3492.49, 0.000, 0.000, 0.000, 17:47:12.728
24, -486.47, -55.95, 231.81, -3333.74, 0.000, 0.000, 0.000, 17:47:12.729
25, -529.64, -77.42, 256.08, -3285.69, 0.000, 0.000, 0.000, 17:47:12.743
26, -491.84, -49.18, 279.68, -3422.64, 0.000, 0.000, 0.000, 17:47:12.743
27, -442.11, -24.14, 260.37, -3428.07, 0.000, 0.000, 0.000, 17:47:12.758
28, -479.63, -54.34, 257.84, -3330.61, 0.000, 0.000, 0.000, 17:47:12.761
29, -520.64, -72.84, 250.50, -3273.99, 0.000, 0.000, 0.000, 17:47:12.761
30, -483.61, -45.69, 263.26, -3336.43, 0.000, 0.000, 0.000, 17:47:12.761
31, -443.15, -24.27, 260.68, -3464.82, 0.000, 0.000, 0.000, 17:47:12.773
32, -491.62, -51.64, 254.61, -3347.86, 0.000, 0.000, 0.000, 17:47:12.773
33, -521.67, -79.50, 255.97, -3234.19, 0.000, 0.000, 0.000, 17:47:12.788
34, -477.39, -41.78, 275.45, -3340.37, 0.000, 0.000, 0.000, 17:47:12.788
35, -447.19, -31.34, 264.51, -3444.28, 0.000, 0.000, 0.000, 17:47:12.788
36, -479.51, -58.29, 237.68, -3349.32, 0.000, 0.000, 0.000, 17:47:12.788
37, -520.17, -79.10, 256.79, -3274.62, 0.000, 0.000, 0.000, 17:47:12.807
38, -500.66, -58.69, 272.33, -3422.01, 0.000, 0.000, 0.000, 17:47:12.807
39, -438.43, -26.30, 251.34, -3392.60, 0.000, 0.000, 0.000, 17:47:12.818
40, -483.87, -59.61, 248.09, -3355.44, 0.000, 0.000, 0.000, 17:47:12.818
41, -522.60, -78.54, 252.60, -3267.94, 0.000, 0.000, 0.000, 17:47:12.818
42, -477.14, -45.56, 277.64, -3331.04, 0.000, 0.000, 0.000, 17:47:12.818
43, -440.96, -31.94, 245.38, -3448.39, 0.000, 0.000, 0.000, 17:47:12.833
44, -497.85, -71.61, 228.29, -3408.30, 0.000, 0.000, 0.000, 17:47:12.833
45, -518.45, -71.50, 274.72, -3236.81, 0.000, 0.000, 0.000, 17:47:12.848
46, -479.35, -41.47, 280.42, -3338.13, 0.000, 0.000, 0.000, 17:47:12.848
47, -446.95, -28.34, 257.11, -3463.11, 0.000, 0.000, 0.000, 17:47:12.848
48, -477.66, -48.40, 249.77, -3326.30, 0.000, 0.000, 0.000, 17:47:12.848
49, -527.31, -76.72, 262.73, -3251.80, 0.000, 0.000, 0.000, 17:47:12.863
50, -493.85, -52.22, 276.42, -3394.64, 0.000, 0.000, 0.000, 17:47:12.863
51, -441.84, -28.57, 249.39, -3462.92, 0.000, 0.000, 0.000, 17:47:12.877
52, -480.20, -57.49, 246.30, -3360.47, 0.000, 0.000, 0.000, 17:47:12.878
53, -521.62, -74.52, 267.67, -3290.70, 0.000, 0.000, 0.000, 17:47:12.878
54, -476.96, -43.94, 279.38, -3354.83, 0.000, 0.000, 0.000, 17:47:12.878
55, -429.24, -18.65, 265.03, -3460.42, 0.000, 0.000, 0.000, 17:47:12.893
56, -486.46, -60.04, 246.34, -3446.39, 0.000, 0.000, 0.000, 17:47:12.893
57, -523.00, -83.10, 250.79, -3255.50, 0.000, 0.000, 0.000, 17:47:12.908
58, -484.54, -50.84, 265.17, -3332.30, 0.000, 0.000, 0.000, 17:47:12.908
59, -444.25, -29.28, 264.82, -3446.46, 0.000, 0.000, 0.000, 17:47:12.908
60, -478.87, -56.97, 252.22, -3330.68, 0.000, 0.000, 0.000, 17:47:12.908
61, -520.71, -78.61, 256.74, -3233.27, 0.000, 0.000, 0.000, 17:47:12.923
62, -494.19, -58.14, 269.13, -3361.89, 0.000, 0.000, 0.000, 17:47:12.923
63, -438.13, -28.51, 240.59, -3410.40, 0.000, 0.000, 0.000, 17:47:12.938
64, -482.29, -57.41, 230.26, -3370.55, 0.000, 0.000, 0.000, 17:47:12.938
65, -519.33, -76.91, 266.20, -3267.45, 0.000, 0.000, 0.000, 17:47:12.938
66, -484.19, -53.01, 268.67, -3345.64, 0.000, 0.000, 0.000, 17:47:12.938
67, -439.22, -24.37, 258.52, -3426.43, 0.000, 0.000, 0.000, 17:47:12.953
68, -484.68, -58.60, 248.83, -3394.67, 0.000, 0.000, 0.000, 17:47:12.953
69, -519.00, -77.42, 257.46, -3244.62, 0.000, 0.000, 0.000, 17:47:12.967
70, -482.07, -41.84, 261.51, -3355.83, 0.000, 0.000, 0.000, 17:47:12.968
71, -440.89, -28.88, 240.41, -3431.39, 0.000, 0.000, 0.000, 17:47:12.968
72, -480.04, -53.00, 226.96, -3314.75, 0.000, 0.000, 0.000, 17:47:12.968
73, -507.37, -63.77, 263.09, -3241.10, 0.000, 0.000, 0.000, 17:47:12.983
74, -479.95, -39.43, 281.47, -3367.86, 0.000, 0.000, 0.000, 17:47:12.983
75, -435.24, -19.92, 257.16, -3420.74, 0.000, 0.000, 0.000, 17:47:12.998
76, -476.93, -54.73, 232.01, -3360.72, 0.000, 0.000, 0.000, 17:47:12.998
77, -516.67, -68.48, 269.09, -3254.39, 0.000, 0.000, 0.000, 17:47:12.998
78, -479.71, -43.50, 274.82, -3333.23, 0.000, 0.000, 0.000, 17:47:12.998
79, -432.77, -19.26, 254.43, -3420.98, 0.000, 0.000, 0.000, 17:47:13.013
80, -485.27, -56.85, 245.83, -3401.07, 0.000, 0.000, 0.000, 17:47:13.013
81, -508.26, -66.77, 264.70, -3225.54, 0.000, 0.000, 0.000, 17:47:13.043
82, -478.70, -38.98, 272.92, -3358.87, 0.000, 0.000, 0.000, 17:47:13.043
83, -444.47, -27.47, 259.70, -3475.77, 0.000, 0.000, 0.000, 17:47:13.043
84, -474.70, -50.45, 254.40, -3332.51, 0.000, 0.000, 0.000, 17:47:13.043
85, -520.53, -78.99, 254.75, -3297.69, 0.000, 0.000, 0.000, 17:47:13.044
86, -487.97, -50.18, 254.49, -3370.70, 0.000, 0.000, 0.000, 17:47:13.044
87, -440.88, -33.05, 248.95, -3466.97, 0.000, 0.000, 0.000, 17:47:13.045
88, -478.36, -54.03, 247.82, -3365.93, 0.000, 0.000, 0.000, 17:47:13.045
89, -539.30, -83.55, 259.47, -3448.36, 0.000, 0.000, 0.000, 17:47:13.058
90, -477.17, -49.91, 258.87, -3303.98, 0.000, 0.000, 0.000, 17:47:13.058
91, -439.34, -32.63, 251.87, -3468.69, 0.000, 0.000, 0.000, 17:47:13.073
92, -488.04, -66.69, 238.00, -3400.11, 0.000, 0.000, 0.000, 17:47:13.073
93, -516.10, -71.33, 268.20, -3232.34, 0.000, 0.000, 0.000, 17:47:13.088
94, -487.41, -52.70, 274.94, -3340.73, 0.000, 0.000, 0.000, 17:47:13.088
95, -439.46, -28.37, 248.50, -3462.48, 0.000, 0.000, 0.000, 17:47:13.088
96, -472.24, -51.83, 248.57, -3327.08, 0.000, 0.000, 0.000, 17:47:13.088
97, -514.01, -71.77, 270.33, -3269.08, 0.000, 0.000, 0.000, 17:47:13.103
98, -498.40, -62.10, 276.37, -3408.03, 0.000, 0.000, 0.000, 17:47:13.103
99, -441.59, -25.35, 249.97, -3403.34, 0.000, 0.000, 0.000, 17:47:13.118
100, -483.05, -57.83, 237.58, -3349.99, 0.000, 0.000, 0.000, 17:47:13.118
101, -524.80, -78.10, 270.33, -3241.55, 0.000, 0.000, 0.000, 17:47:13.118
102, -477.98, -41.75, 282.31, -3331.33, 0.000, 0.000, 0.000, 17:47:13.118
103, -444.89, -28.83, 252.66, -3442.60, 0.000, 0.000, 0.000, 17:47:13.133
104, -484.81, -59.27, 255.00, -3387.17, 0.000, 0.000, 0.000, 17:47:13.133
105, -518.62, -73.76, 273.19, -3216.51, 0.000, 0.000, 0.000, 17:47:13.147
106, -483.95, -52.86, 245.41, -3337.57, 0.000, 0.000, 0.000, 17:47:13.148
107, -438.70, -31.55, 243.56, -3437.35, 0.000, 0.000, 0.000, 17:47:13.148
108, -479.17, -62.85, 238.13, -3329.52, 0.000, 0.000, 0.000, 17:47:13.148
109, -526.52, -81.15, 256.87, -3265.45, 0.000, 0.000, 0.000, 17:47:13.163
110, -499.98, -60.27, 275.94, -3396.13, 0.000, 0.000, 0.000, 17:47:13.163
111, -443.33, -25.05, 259.40, -3453.40, 0.000, 0.000, 0.000, 17:47:13.178
112, -485.32, -57.07, 231.30, -3377.53, 0.000, 0.000, 0.000, 17:47:13.178
113, -518.85, -78.30, 263.33, -3279.30, 0.000, 0.000, 0.000, 17:47:13.178
114, -483.38, -47.86, 272.83, -3335.91, 0.000, 0.000, 0.000, 17:47:13.178
115, -443.20, -34.19, 249.44, -3468.75, 0.000, 0.000, 0.000, 17:47:13.193
116, -484.00, -57.97, 252.82, -3411.13, 0.000, 0.000, 0.000, 17:47:13.193
117, -512.48, -72.97, 274.65, -3211.47, 0.000, 0.000, 0.000, 17:47:13.208
118, -483.36, -52.79, 249.74, -3334.87, 0.000, 0.000, 0.000, 17:47:13.208
119, -437.78, -32.59, 243.12, -3456.38, 0.000, 0.000, 0.000, 17:47:13.208
120, -467.26, -51.47, 231.35, -3317.59, 0.000, 0.000, 0.000, 17:47:13.208
121, -519.88, -69.41, 245.21, -3251.10, 0.000, 0.000, 0.000, 17:47:13.223
122, -491.24, -51.68, 275.97, -3406.09, 0.000, 0.000, 0.000, 17:47:13.223
123, -441.68, -26.38, 251.10, -3421.17, 0.000, 0.000, 0.000, 17:47:13.238
124, -478.19, -53.00, 238.30, -3367.43, 0.000, 0.000, 0.000, 17:47:13.238
125, -528.77, -76.97, 260.85, -3296.92, 0.000, 0.000, 0.000, 17:47:13.238
126, -490.29, -55.45, 270.25, -3311.62, 0.000, 0.000, 0.000, 17:47:13.238
127, -435.61, -25.58, 251.54, -3404.92, 0.000, 0.000, 0.000, 17:47:13.253
128, -491.33, -61.05, 245.49, -3370.62, 0.000, 0.000, 0.000, 17:47:13.253
129, -520.45, -79.32, 267.40, -3224.10, 0.000, 0.000, 0.000, 17:47:13.268
130, -486.60, -55.37, 262.06, -3345.00, 0.000, 0.000, 0.000, 17:47:13.268
131, -454.88, -38.52, 246.64, -3465.39, 0.000, 0.000, 0.000, 17:47:13.268
132, -481.41, -57.45, 236.72, -3309.31, 0.000, 0.000, 0.000, 17:47:13.268
133, -527.51, -82.16, 265.15, -3239.89, 0.000, 0.000, 0.000, 17:47:13.283
134, -504.97, -64.22, 286.22, -3399.49, 0.000, 0.000, 0.000, 17:47:13.283
135, -453.95, -41.87, 244.25, -3445.43, 0.000, 0.000, 0.000, 17:47:13.298
136, -487.52, -64.98, 237.74, -3379.99, 0.000, 0.000, 0.000, 17:47:13.298
137, -527.93, -85.05, 258.88, -3268.41, 0.000, 0.000, 0.000, 17:47:13.298
138, -495.88, -59.13, 265.21, -3347.46, 0.000, 0.000, 0.000, 17:47:13.298
139, -446.54, -32.31, 255.49, -3421.35, 0.000, 0.000, 0.000, 17:47:13.313
140, -493.14, -61.27, 248.67, -3413.86, 0.000, 0.000, 0.000, 17:47:13.313
141, -523.27, -75.53, 261.23, -3227.40, 0.000, 0.000, 0.000, 17:47:13.328
142, -487.21, -43.22, 274.60, -3319.81, 0.000, 0.000, 0.000, 17:47:13.328
143, -443.46, -24.23, 251.47, -3434.63, 0.000, 0.000, 0.000, 17:47:13.328
144, -480.27, -57.28, 230.25, -3348.83, 0.000, 0.000, 0.000, 17:47:13.328
145, -527.14, -84.85, 250.20, -3280.18, 0.000, 0.000, 0.000, 17:47:13.358
146, -501.69, -66.40, 270.98, -3428.99, 0.000, 0.000, 0.000, 17:47:13.358
147, -450.18, -33.14, 254.72, -3438.19, 0.000, 0.000, 0.000, 17:47:13.358
148, -482.83, -54.09, 237.09, -3362.46, 0.000, 0.000, 0.000, 17:47:13.358
149, -522.72, -78.15, 252.79, -3266.62, 0.000, 0.000, 0.000, 17:47:13.359
150, -491.08, -52.90, 258.48, -3358.23, 0.000, 0.000, 0.000, 17:47:13.359
151, -453.60, -37.63, 243.26, -3487.94, 0.000, 0.000, 0.000, 17:47:13.373
152, -499.41, -64.61, 240.99, -3500.79, 0.000, 0.000, 0.000, 17:47:13.373
153, -529.27, -81.87, 251.45, -3295.44, 0.000, 0.000, 0.000, 17:47:13.387
154, -490.96, -54.16, 263.98, -3345.62, 0.000, 0.000, 0.000, 17:47:13.388
155, -448.58, -31.11, 247.57, -3440.68, 0.000, 0.000, 0.000, 17:47:13.388
156, -477.35, -57.85, 240.00, -3337.35, 0.000, 0.000, 0.000, 17:47:13.388
157, -527.84, -81.84, 254.07, -3281.62, 0.000, 0.000, 0.000, 17:47:13.403
158, -493.85, -54.36, 282.51, -3404.26, 0.000, 0.000, 0.000, 17:47:13.403
159, -453.41, -37.78, 242.40, -3448.41, 0.000, 0.000, 0.000, 17:47:13.418
160, -479.86, -55.35, 237.41, -3372.31, 0.000, 0.000, 0.000, 17:47:13.418
161, -526.20, -77.23, 253.25, -3260.90, 0.000, 0.000, 0.000, 17:47:13.418
162, -483.94, -46.73, 257.18, -3308.86, 0.000, 0.000, 0.000, 17:47:13.418
163, -443.40, -29.24, 255.67, -3442.05, 0.000, 0.000, 0.000, 17:47:13.433
164, -474.92, -46.48, 246.98, -3423.90, 0.000, 0.000, 0.000, 17:47:13.433
165, -524.06, -79.00, 246.29, -3255.23, 0.000, 0.000, 0.000, 17:47:13.448
166, -488.39, -50.89, 264.10, -3336.36, 0.000, 0.000, 0.000, 17:47:13.448
167, -450.18, -34.61, 255.60, -3442.58, 0.000, 0.000, 0.000, 17:47:13.448
168, -471.43, -56.69, 246.44, -3296.29, 0.000, 0.000, 0.000, 17:47:13.448
169, -524.39, -81.91, 244.75, -3241.67, 0.000, 0.000, 0.000, 17:47:13.463
170, -495.79, -60.29, 269.00, -3396.93, 0.000, 0.000, 0.000, 17:47:13.463
171, -444.20, -31.81, 254.10, -3424.88, 0.000, 0.000, 0.000, 17:47:13.478
172, -477.63, -60.01, 232.57, -3366.77, 0.000, 0.000, 0.000, 17:47:13.478
173, -530.73, -86.55, 253.43, -3301.14, 0.000, 0.000, 0.000, 17:47:13.478
174, -498.15, -62.01, 253.74, -3320.45, 0.000, 0.000, 0.000, 17:47:13.478
175, -446.67, -31.75, 246.61, -3464.12, 0.000, 0.000, 0.000, 17:47:13.493
176, -484.76, -56.27, 255.60, -3410.11, 0.000, 0.000, 0.000, 17:47:13.493
177, -521.41, -77.67, 249.64, -3217.93, 0.000, 0.000, 0.000, 17:47:13.508
178, -493.97, -54.70, 258.44, -3335.99, 0.000, 0.000, 0.000, 17:47:13.508
179, -456.67, -37.62, 238.44, -3488.78, 0.000, 0.000, 0.000, 17:47:13.508
180, -474.08, -50.69, 252.73, -3352.10, 0.000, 0.000, 0.000, 17:47:13.508
181, -525.95, -77.11, 244.53, -3306.77, 0.000, 0.000, 0.000, 17:47:13.523
182, -501.27, -57.56, 274.00, -3412.99, 0.000, 0.000, 0.000, 17:47:13.523
183, -443.42, -30.56, 236.90, -3441.20, 0.000, 0.000, 0.000, 17:47:13.538
184, -470.23, -48.96, 238.22, -3372.61, 0.000, 0.000, 0.000, 17:47:13.538
185, -519.35, -73.24, 261.46, -3278.84, 0.000, 0.000, 0.000, 17:47:13.538
186, -491.42, -55.20, 280.20, -3358.11, 0.000, 0.000, 0.000, 17:47:13.538
187, -441.65, -28.24, 261.02, -3433.83, 0.000, 0.000, 0.000, 17:47:13.553
188, -479.77, -53.44, 243.01, -3408.00, 0.000, 0.000, 0.000, 17:47:13.553
189, -512.44, -72.69, 265.35, -3235.58, 0.000, 0.000, 0.000, 17:47:13.568
190, -495.53, -56.70, 269.33, -3333.11, 0.000, 0.000, 0.000, 17:47:13.568
191, -455.09, -35.01, 251.18, -3421.68, 0.000, 0.000, 0.000, 17:47:13.568
192, -476.46, -48.70, 238.16, -3323.55, 0.000, 0.000, 0.000, 17:47:13.568
193, -521.62, -76.45, 262.49, -3278.14, 0.000, 0.000, 0.000, 17:47:13.583
194, -491.22, -49.54, 272.26, -3334.39, 0.000, 0.000, 0.000, 17:47:13.583
195, -440.14, -25.48, 240.38, -3386.05, 0.000, 0.000, 0.000, 17:47:13.598
196, -479.36, -57.48, 235.85, -3350.89, 0.000, 0.000, 0.000, 17:47:13.598
197, -525.13, -81.90, 266.11, -3266.12, 0.000, 0.000, 0.000, 17:47:13.598
198, -492.75, -61.92, 278.61, -3322.09, 0.000, 0.000, 0.000, 17:47:13.598
199, -450.93, -36.46, 255.45, -3438.55, 0.000, 0.000, 0.000, 17:47:13.612
200, -489.88, -63.83, 228.30, -3423.31, 0.000, 0.000, 0.000, 17:47:13.613
0, -530.13, -84.06, 249.86, -3284.96, 0.000, 0.000, 0.000, 17:47:13.613
1, -486.83, -49.97, 276.68, -3340.83, 0.000, 0.000, 0.000, 17:47:13.628
2, -449.22, -33.10, 258.75, -3491.53, 0.000, 0.000, 0.000, 17:47:13.628
3, -467.87, -52.23, 229.36, -3323.70, 0.000, 0.000, 0.000, 17:47:13.643
4, -521.00, -78.85, 247.59, -3256.69, 0.000, 0.000, 0.000, 17:47:13.643
5, -500.53, -64.00, 265.47, -3363.76, 0.000, 0.000, 0.000, 17:47:13.643
6, -452.11, -38.98, 250.89, -3442.56, 0.000, 0.000, 0.000, 17:47:13.643
7, -478.76, -65.10, 235.66, -3368.26, 0.000, 0.000, 0.000, 17:47:13.658
8, -543.92, -89.62, 255.37, -3365.17, 0.000, 0.000, 0.000, 17:47:13.658
9, -497.93, -62.86, 257.41, -3339.19, 0.000, 0.000, 0.000, 17:47:13.673
10, -452.74, -36.94, 242.49, -3469.59, 0.000, 0.000, 0.000, 17:47:13.673
11, -483.78, -61.17, 241.68, -3411.44, 0.000, 0.000, 0.000, 17:47:13.673
12, -531.04, -86.65, 247.12, -3285.17, 0.000, 0.000, 0.000, 17:47:13.673
13, -499.22, -59.37, 260.38, -3380.76, 0.000, 0.000, 0.000, 17:47:13.688
14, -459.99, -40.80, 248.12, -3543.02, 0.000, 0.000, 0.000, 17:47:13.688
15, -477.21, -61.90, 229.03, -3371.70, 0.000, 0.000, 0.000, 17:47:13.703
16, -517.74, -83.87, 261.92, -3266.67, 0.000, 0.000, 0.000, 17:47:13.703
17, -488.83, -50.81, 272.96, -3334.64, 0.000, 0.000, 0.000, 17:47:13.703
18, -443.22, -28.16, 233.04, -3416.08, 0.000, 0.000, 0.000, 17:47:13.703
19, -472.65, -52.73, 229.47, -3364.07, 0.000, 0.000, 0.000, 17:47:13.718
20, -530.99, -82.11, 254.62, -3334.72, 0.000, 0.000, 0.000, 17:47:13.718
21, -484.27, -50.96, 274.80, -3299.94, 0.000, 0.000, 0.000, 17:47:13.733
22, -447.06, -31.61, 262.72, -3427.06, 0.000, 0.000, 0.000, 17:47:13.733
23, -473.17, -55.54, 242.38, -3355.82, 0.000, 0.000, 0.000, 17:47:13.733
24, -510.58, -73.85, 265.85, -3216.32, 0.000, 0.000, 0.000, 17:47:13.733
25, -488.97, -56.09, 264.55, -3301.35, 0.000, 0.000, 0.000, 17:47:13.748
26, -456.02, -39.64, 255.01, -3492.59, 0.000, 0.000, 0.000, 17:47:13.748
27, -473.29, -56.44, 240.73, -3334.23, 0.000, 0.000, 0.000, 17:47:13.763
28, -516.40, -77.56, 259.63, -3251.11, 0.000, 0.000, 0.000, 17:47:13.763
29, -503.36, -58.41, 267.34, -3361.22, 0.000, 0.000, 0.000, 17:47:13.763
30, -459.37, -39.21, 244.56, -3468.18, 0.000, 0.000, 0.000, 17:47:13.763
31, -490.58, -65.52, 219.07, -3413.38, 0.000, 0.000, 0.000, 17:47:13.778
32, -525.69, -73.20, 267.28, -3352.29, 0.000, 0.000, 0.000, 17:47:13.778
33, -492.35, -51.54, 267.97, -3312.58, 0.000, 0.000, 0.000, 17:47:13.793
34, -443.87, -25.48, 268.63, -3441.21, 0.000, 0.000, 0.000, 17:47:13.793
35, -485.12, -56.92, 245.84, -3399.23, 0.000, 0.000, 0.000, 17:47:13.793
36, -529.91, -82.58, 264.99, -3256.18, 0.000, 0.000, 0.000, 17:47:13.794
37, -496.92, -65.06, 273.39, -3347.39, 0.000, 0.000, 0.000, 17:47:13.808
38, -460.23, -36.35, 263.44, -3515.37, 0.000, 0.000, 0.000, 17:47:13.808
39, -467.27, -49.67, 248.90, -3340.25, 0.000, 0.000, 0.000, 17:47:13.825
40, -517.99, -77.11, 259.36, -3277.20, 0.000, 0.000, 0.000, 17:47:13.825
41, -501.27, -59.18, 278.24, -3358.62, 0.000, 0.000, 0.000, 17:47:13.825
42, -450.14, -34.36, 239.99, -3416.79, 0.000, 0.000, 0.000, 17:47:13.825
43, -470.45, -54.35, 216.88, -3385.47, 0.000, 0.000, 0.000, 17:47:13.838
44, -518.64, -72.80, 249.20, -3337.27, 0.000, 0.000, 0.000, 17:47:13.838
45, -482.89, -46.57, 270.18, -3305.76, 0.000, 0.000, 0.000, 17:47:13.852
46, -445.45, -27.63, 248.63, -3437.25, 0.000, 0.000, 0.000, 17:47:13.853
47, -474.58, -51.75, 228.26, -3395.26, 0.000, 0.000, 0.000, 17:47:13.853
48, -516.74, -72.31, 236.32, -3271.96, 0.000, 0.000, 0.000, 17:47:13.853
49, -494.33, -54.86, 264.06, -3347.65, 0.000, 0.000, 0.000, 17:47:13.868
50, -456.91, -37.61, 250.48, -3486.17, 0.000, 0.000, 0.000, 17:47:13.868
51, -469.16, -48.99, 231.89, -3330.26, 0.000, 0.000, 0.000, 17:47:13.883
52, -513.88, -74.93, 264.82, -3260.46, 0.000, 0.000, 0.000, 17:47:13.883
53, -498.09, -57.17, 293.02, -3358.13, 0.000, 0.000, 0.000, 17:47:13.883
54, -447.02, -35.06, 238.82, -3426.75, 0.000, 0.000, 0.000, 17:47:13.884
55, -484.69, -59.65, 226.09, -3405.62, 0.000, 0.000, 0.000, 17:47:13.898
56, -529.32, -81.76, 254.19, -3332.28, 0.000, 0.000, 0.000, 17:47:13.898
57, -496.10, -55.09, 281.20, -3339.27, 0.000, 0.000, 0.000, 17:47:13.913
58, -457.63, -40.46, 249.36, -3466.02, 0.000, 0.000, 0.000, 17:47:13.913
59, -487.75, -56.58, 238.54, -3385.35, 0.000, 0.000, 0.000, 17:47:13.913
60, -520.96, -81.00, 254.50, -3229.47, 0.000, 0.000, 0.000, 17:47:13.913
61, -496.44, -58.28, 277.06, -3339.34, 0.000, 0.000, 0.000, 17:47:13.928
62, -454.40, -37.22, 256.41, -3514.52, 0.000, 0.000, 0.000, 17:47:13.928
63, -472.90, -49.78, 247.13, -3346.94, 0.000, 0.000, 0.000, 17:47:13.943
64, -523.91, -72.74, 260.73, -3260.73, 0.000, 0.000, 0.000, 17:47:13.943
65, -483.71, -48.03, 284.35, -3328.26, 0.000, 0.000, 0.000, 17:47:13.943
66, -442.86, -24.83, 255.34, -3439.02, 0.000, 0.000, 0.000, 17:47:13.943
67, -476.94, -52.87, 235.84, -3388.68, 0.000, 0.000, 0.000, 17:47:13.958
68, -535.94, -79.41, 270.26, -3315.12, 0.000, 0.000, 0.000, 17:47:13.958
69, -493.27, -54.13, 283.40, -3325.23, 0.000, 0.000, 0.000, 17:47:13.973
70, -451.70, -30.98, 256.59, -3450.67, 0.000, 0.000, 0.000, 17:47:13.973
71, -477.61, -52.55, 249.61, -3380.63, 0.000, 0.000, 0.000, 17:47:13.973
72, -520.47, -75.02, 262.02, -3242.73, 0.000, 0.000, 0.000, 17:47:13.973
73, -506.78, -65.29, 272.39, -3355.36, 0.000, 0.000, 0.000, 17:47:14.003
74, -457.80, -34.35, 262.04, -3512.17, 0.000, 0.000, 0.000, 17:47:14.003
75, -475.26, -50.57, 226.93, -3369.68, 0.000, 0.000, 0.000, 17:47:14.003
76, -529.56, -77.96, 253.69, -3296.73, 0.000, 0.000, 0.000, 17:47:14.003
77, -495.69, -53.21, 275.19, -3379.63, 0.000, 0.000, 0.000, 17:47:14.004
78, -451.86, -33.84, 239.57, -3456.58, 0.000, 0.000, 0.000, 17:47:14.004
79, -470.42, -54.13, 239.96, -3361.28, 0.000, 0.000, 0.000, 17:47:14.018
80, -535.52, -82.78, 264.52, -3377.37, 0.000, 0.000, 0.000, 17:47:14.018
81, -495.32, -56.79, 266.14, -3339.14, 0.000, 0.000, 0.000, 17:47:14.033
82, -453.66, -39.44, 241.85, -3491.21, 0.000, 0.000, 0.000, 17:47:14.033
83, -472.95, -56.74, 241.34, -3395.76, 0.000, 0.000, 0.000, 17:47:14.033
84, -513.91, -72.20, 263.30, -3242.65, 0.000, 0.000, 0.000, 17:47:14.033
85, -490.98, -57.40, 276.45, -3336.53, 0.000, 0.000, 0.000, 17:47:14.048
86, -456.87, -36.51, 266.11, -3493.15, 0.000, 0.000, 0.000, 17:47:14.048
87, -470.87, -51.61, 243.00, -3372.58, 0.000, 0.000, 0.000, 17:47:14.063
88, -525.01, -81.28, 250.15, -3248.52, 0.000, 0.000, 0.000, 17:47:14.063
89, -501.24, -62.11, 262.68, -3360.08, 0.000, 0.000, 0.000, 17:47:14.063
90, -445.68, -34.52, 248.19, -3400.02, 0.000, 0.000, 0.000, 17:47:14.063
91, -467.22, -47.52, 242.96, -3351.06, 0.000, 0.000, 0.000, 17:47:14.078
92, -531.71, -82.70, 269.36, -3333.56, 0.000, 0.000, 0.000, 17:47:14.078
93, -496.11, -60.95, 271.32, -3310.15, 0.000, 0.000, 0.000, 17:47:14.093
94, -448.18, -31.32, 246.97, -3454.32, 0.000, 0.000, 0.000, 17:47:14.093
95, -482.54, -54.79, 236.78, -3407.94, 0.000, 0.000, 0.000, 17:47:14.093
96, -517.43, -69.69, 268.18, -3237.48, 0.000, 0.000, 0.000, 17:47:14.093
97, -488.53, -48.45, 276.32, -3286.60, 0.000, 0.000, 0.000, 17:47:14.108
98, -456.68, -34.73, 243.12, -3436.22, 0.000, 0.000, 0.000, 17:47:14.108
99, -465.85, -47.86, 226.10, -3316.78, 0.000, 0.000, 0.000, 17:47:14.123
100, -520.39, -74.87, 250.62, -3258.08, 0.000, 0.000, 0.000, 17:47:14.123
101, -489.03, -49.99, 269.04, -3330.49, 0.000, 0.000, 0.000, 17:47:14.138
102, -436.82, -28.59, 244.46, -3380.05, 0.000, 0.000, 0.000, 17:47:14.138
103, -462.69, -47.70, 243.06, -3387.58, 0.000, 0.000, 0.000, 17:47:14.138
104, -530.21, -79.89, 262.98, -3340.55, 0.000, 0.000, 0.000, 17:47:14.138
105, -498.19, -55.00, 271.17, -3320.26, 0.000, 0.000, 0.000, 17:47:14.153
106, -452.98, -38.37, 243.64, -3448.74, 0.000, 0.000, 0.000, 17:47:14.153
107, -483.87, -59.07, 240.33, -3458.55, 0.000, 0.000, 0.000, 17:47:14.153
108, -510.77, -69.79, 269.78, -3269.72, 0.000, 0.000, 0.000, 17:47:14.154
109, -493.57, -52.70, 278.41, -3327.63, 0.000, 0.000, 0.000, 17:47:14.168
110, -453.79, -28.32, 262.86, -3498.28, 0.000, 0.000, 0.000, 17:47:14.168
111, -471.77, -44.31, 237.88, -3373.85, 0.000, 0.000, 0.000, 17:47:14.183
112, -517.88, -71.23, 243.96, -3271.35, 0.000, 0.000, 0.000, 17:47:14.183
113, -500.64, -56.36, 267.10, -3360.26, 0.000, 0.000, 0.000, 17:47:14.183
114, -449.80, -31.55, 239.70, -3423.37, 0.000, 0.000, 0.000, 17:47:14.183
115, -466.39, -42.52, 235.42, -3359.72, 0.000, 0.000, 0.000, 17:47:14.198
116, -526.04, -75.39, 249.22, -3286.62, 0.000, 0.000, 0.000, 17:47:14.198
117, -482.87, -39.89, 275.00, -3228.84, 0.000, 0.000, 0.000, 17:47:14.213
118, -440.75, -26.98, 234.64, -3418.27, 0.000, 0.000, 0.000, 17:47:14.213
119, -473.51, -50.61, 225.90, -3384.46, 0.000, 0.000, 0.000, 17:47:14.213
120, -507.23, -62.32, 263.50, -3228.59, 0.000, 0.000, 0.000, 17:47:14.213
121, -487.96, -47.85, 280.73, -3337.30, 0.000, 0.000, 0.000, 17:47:14.243
122, -454.47, -30.98, 259.72, -3478.95, 0.000, 0.000, 0.000, 17:47:14.243
123, -473.23, -47.14, 239.47, -3387.72, 0.000, 0.000, 0.000, 17:47:14.243
124, -521.81, -73.80, 268.21, -3299.85, 0.000, 0.000, 0.000, 17:47:14.243
125, -495.50, -58.18, 280.29, -3319.16, 0.000, 0.000, 0.000, 17:47:14.244
126, -446.95, -31.47, 262.87, -3421.61, 0.000, 0.000, 0.000, 17:47:14.244
127, -470.86, -56.15, 238.71, -3418.21, 0.000, 0.000, 0.000, 17:47:14.258
128, -537.73, -87.00, 266.19, -3402.95, 0.000, 0.000, 0.000, 17:47:14.258
129, -495.54, -60.96, 268.95, -3318.65, 0.000, 0.000, 0.000, 17:47:14.273
130, -450.01, -34.22, 262.07, -3428.61, 0.000, 0.000, 0.000, 17:47:14.273
131, -469.86, -48.65, 251.09, -3414.15, 0.000, 0.000, 0.000, 17:47:14.273
132, -522.62, -77.28, 254.54, -3262.55, 0.000, 0.000, 0.000, 17:47:14.273
133, -491.94, -51.22, 266.62, -3332.47, 0.000, 0.000, 0.000, 17:47:14.288
134, -456.33, -29.94, 249.31, -3509.67, 0.000, 0.000, 0.000, 17:47:14.288
135, -460.90, -41.89, 233.13, -3355.35, 0.000, 0.000, 0.000, 17:47:14.318
136, -513.92, -69.68, 247.45, -3286.09, 0.000, 0.000, 0.000, 17:47:14.318
137, -497.86, -51.63, 274.62, -3360.72, 0.000, 0.000, 0.000, 17:47:14.318
138, -441.75, -24.95, 263.12, -3454.73, 0.000, 0.000, 0.000, 17:47:14.318
139, -464.92, -46.18, 228.05, -3424.74, 0.000, 0.000, 0.000, 17:47:14.319
140, -508.97, -68.80, 260.99, -3265.19, 0.000, 0.000, 0.000, 17:47:14.319
141, -493.99, -58.24, 265.34, -3336.33, 0.000, 0.000, 0.000, 17:47:14.320
142, -441.02, -29.20, 253.06, -3412.53, 0.000, 0.000, 0.000, 17:47:14.320
143, -485.34, -54.33, 260.03, -3566.02, 0.000, 0.000, 0.000, 17:47:14.333
144, -509.44, -72.59, 271.52, -3187.65, 0.000, 0.000, 0.000, 17:47:14.333
145, -493.99, -58.04, 270.41, -3279.33, 0.000, 0.000, 0.000, 17:47:14.348
146, -445.57, -26.56, 263.18, -3445.47, 0.000, 0.000, 0.000, 17:47:14.348
147, -468.35, -48.22, 245.49, -3355.25, 0.000, 0.000, 0.000, 17:47:14.363
148, -515.76, -69.15, 260.68, -3243.71, 0.000, 0.000, 0.000, 17:47:14.363
149, -494.97, -47.93, 287.24, -3305.35, 0.000, 0.000, 0.000, 17:47:14.363
150, -447.96, -27.17, 258.51, -3427.22, 0.000, 0.000, 0.000, 17:47:14.363
151, -473.90, -42.06, 239.09, -3362.71, 0.000, 0.000, 0.000, 17:47:14.378
152, -524.30, -67.54, 264.51, -3327.90, 0.000, 0.000, 0.000, 17:47:14.378
153, -493.48, -46.57, 272.05, -3297.97, 0.000, 0.000, 0.000, 17:47:14.393
154, -455.10, -33.88, 245.98, -3447.78, 0.000, 0.000, 0.000, 17:47:14.393
155, -479.52, -50.79, 246.87, -3410.37, 0.000, 0.000, 0.000, 17:47:14.397
156, -521.13, -72.73, 240.19, -3256.05, 0.000, 0.000, 0.000, 17:47:14.398
157, -502.00, -60.25, 265.98, -3323.41, 0.000, 0.000, 0.000, 17:47:14.408
158, -455.56, -33.43, 266.03, -3457.05, 0.000, 0.000, 0.000, 17:47:14.408
159, -469.18, -51.90, 229.13, -3369.22, 0.000, 0.000, 0.000, 17:47:14.423
160, -509.38, -65.36, 255.41, -3261.71, 0.000, 0.000, 0.000, 17:47:14.423
161, -498.99, -55.64, 272.14, -3338.96, 0.000, 0.000, 0.000, 17:47:14.423
162, -443.82, -19.29, 251.11, -3385.70, 0.000, 0.000, 0.000, 17:47:14.423
163, -464.34, -45.55, 233.44, -3360.00, 0.000, 0.000, 0.000, 17:47:14.438
164, -518.83, -70.73, 262.25, -3306.41, 0.000, 0.000, 0.000, 17:47:14.438
165, -499.27, -57.37, 272.25, -3277.63, 0.000, 0.000, 0.000, 17:47:14.453
166, -445.31, -27.03, 256.11, -3432.19, 0.000, 0.000, 0.000, 17:47:14.453
167, -467.66, -41.49, 245.06, -3347.08, 0.000, 0.000, 0.000, 17:47:14.453
168, -519.39, -68.45, 254.45, -3213.63, 0.000, 0.000, 0.000, 17:47:14.453
169, -507.73, -63.59, 269.26, -3354.22, 0.000, 0.000, 0.000, 17:47:14.468
170, -457.47, -27.75, 264.45, -3447.52, 0.000, 0.000, 0.000, 17:47:14.468
171, -469.91, -42.86, 248.04, -3338.11, 0.000, 0.000, 0.000, 17:47:14.483
172, -520.26, -76.45, 261.37, -3270.32, 0.000, 0.000, 0.000, 17:47:14.483
173, -509.41, -64.95, 277.10, -3325.73, 0.000, 0.000, 0.000, 17:47:14.483
174, -456.86, -37.76, 258.65, -3418.09, 0.000, 0.000, 0.000, 17:47:14.484
175, -468.96, -51.68, 229.92, -3351.17, 0.000, 0.000, 0.000, 17:47:14.498
176, -525.23, -82.62, 256.09, -3331.59, 0.000, 0.000, 0.000, 17:47:14.498
177, -500.68, -61.62, 249.61, -3322.61, 0.000, 0.000, 0.000, 17:47:14.512
178, -444.79, -31.07, 257.06, -3461.54, 0.000, 0.000, 0.000, 17:47:14.513
179, -475.54, -49.35, 230.23, -3429.52, 0.000, 0.000, 0.000, 17:47:14.513
180, -508.62, -74.42, 250.12, -3239.03, 0.000, 0.000, 0.000, 17:47:14.513
181, -491.22, -51.84, 273.66, -3352.30, 0.000, 0.000, 0.000, 17:47:14.528
182, -452.16, -35.27, 261.82, -3486.05, 0.000, 0.000, 0.000, 17:47:14.528
183, -457.54, -40.65, 248.09, -3343.20, 0.000, 0.000, 0.000, 17:47:14.543
184, -513.86, -73.26, 260.95, -3292.88, 0.000, 0.000, 0.000, 17:47:14.543
185, -502.03, -64.31, 284.68, -3341.83, 0.000, 0.000, 0.000, 17:47:14.543
186, -446.00, -30.75, 263.75, -3427.40, 0.000, 0.000, 0.000, 17:47:14.543
187, -472.06, -50.22, 246.47, -3405.10, 0.000, 0.000, 0.000, 17:47:14.558
188, -535.13, -75.79, 267.79, -3325.68, 0.000, 0.000, 0.000, 17:47:14.558
189, -497.74, -55.73, 281.57, -3287.61, 0.000, 0.000, 0.000, 17:47:14.573
190, -452.58, -29.30, 267.24, -3417.62, 0.000, 0.000, 0.000, 17:47:14.573
191, -473.52, -44.41, 230.38, -3376.59, 0.000, 0.000, 0.000, 17:47:14.573
192, -512.67, -73.54, 256.53, -3245.78, 0.000, 0.000, 0.000, 17:47:14.573
193, -500.88, -59.63, 270.60, -3336.95, 0.000, 0.000, 0.000, 17:47:14.588
194, -454.76, -29.59, 256.35, -3467.14, 0.000, 0.000, 0.000, 17:47:14.588
195, -447.67, -33.22, 240.79, -3301.52, 0.000, 0.000, 0.000, 17:47:14.603
196, -515.23, -80.27, 236.28, -3250.61, 0.000, 0.000, 0.000, 17:47:14.603
197, -501.92, -63.04, 260.38, -3339.99, 0.000, 0.000, 0.000, 17:47:14.603
198, -441.86, -23.19, 235.47, -3440.06, 0.000, 0.000, 0.000, 17:47:14.603
199, -470.95, -45.99, 225.10, -3398.64, 0.000, 0.000, 0.000, 17:47:14.618
200, -514.03, -72.78, 256.17, -3302.82, 0.000, 0.000, 0.000, 17:47:14.618
0, -486.82, -50.61, 271.44, -3258.98, 0.000, 0.000, 0.000, 17:47:14.618
1, -441.44, -25.83, 259.96, -3426.49, 0.000, 0.000, 0.000, 17:47:14.633
2, -475.05, -52.95, 248.59, -3447.80, 0.000, 0.000, 0.000, 17:47:14.633
3, -520.54, -77.58, 261.09, -3234.98, 0.000, 0.000, 0.000, 17:47:14.648
4, -504.43, -64.18, 279.14, -3296.46, 0.000, 0.000, 0.000, 17:47:14.648
5, -451.75, -36.09, 256.16, -3435.84, 0.000, 0.000, 0.000, 17:47:14.648
6, -473.97, -51.71, 241.98, -3371.32, 0.000, 0.000, 0.000, 17:47:14.648
7, -519.32, -79.41, 255.60, -3256.85, 0.000, 0.000, 0.000, 17:47:14.663
8, -518.44, -68.58, 280.91, -3349.01, 0.000, 0.000, 0.000, 17:47:14.663
9, -456.13, -40.81, 253.14, -3399.64, 0.000, 0.000, 0.000, 17:47:14.677
10, -466.61, -48.10, 240.65, -3400.37, 0.000, 0.000, 0.000, 17:47:14.678
11, -515.75, -70.61, 249.14, -3283.65, 0.000, 0.000, 0.000, 17:47:14.678
12, -491.65, -52.11, 273.31, -3305.47, 0.000, 0.000, 0.000, 17:47:14.678
13, -439.00, -21.21, 257.64, -3451.26, 0.000, 0.000, 0.000, 17:47:14.693
14, -464.67, -44.88, 241.90, -3483.25, 0.000, 0.000, 0.000, 17:47:14.693
15, -496.11, -56.53, 257.42, -3250.45, 0.000, 0.000, 0.000, 17:47:14.708
16, -489.07, -49.08, 267.50, -3318.21, 0.000, 0.000, 0.000, 17:47:14.708
17, -440.48, -20.27, 251.64, -3434.55, 0.000, 0.000, 0.000, 17:47:14.709
18, -446.65, -29.07, 237.77, -3358.66, 0.000, 0.000, 0.000, 17:47:14.709
19, -509.09, -70.58, 263.23, -3281.47, 0.000, 0.000, 0.000, 17:47:14.723
20, -509.68, -62.82, 284.84, -3358.25, 0.000, 0.000, 0.000, 17:47:14.723
21, -446.41, -33.58, 262.02, -3405.60, 0.000, 0.000, 0.000, 17:47:14.738
22, -462.69, -42.69, 243.60, -3379.50, 0.000, 0.000, 0.000, 17:47:14.738
23, -515.51, -77.48, 268.42, -3271.26, 0.000, 0.000, 0.000, 17:47:14.738
24, -501.14, -57.30, 287.99, -3297.16, 0.000, 0.000, 0.000, 17:47:14.738
