%OpenBCI Raw EEG Data
%Number of channels = 4
%Sample Rate = 200.0 Hz
%First Column = SampleIndex
%Last Column = Timestamp 
%Other Columns = EEG data in microvolts followed by Accel Data (in G) interleaved with Aux Data
0, -182.59, -179.00, -133.13, -219.43, 0.000, 0.000, 0.000, 23:53:18.269, 1547020398269
0, -182.59, -179.00, -133.13, -219.43, 0.000, 0.000, 0.000, 23:53:18.269, 1547020398269
1, -177.78, -182.27, -138.30, -217.50, 0.000, 0.000, 0.000, 23:53:18.283, 1547020398283
1, -177.78, -182.27, -138.30, -217.50, 0.000, 0.000, 0.000, 23:53:18.283, 1547020398283
2, -181.30, -183.87, -154.18, -231.79, 0.000, 0.000, 0.000, 23:53:18.283, 1547020398283
2, -181.30, -183.87, -154.18, -231.79, 0.000, 0.000, 0.000, 23:53:18.283, 1547020398283
3, -180.47, -188.17, -144.70, -219.74, 0.000, 0.000, 0.000, 23:53:18.299, 1547020398299
3, -180.47, -188.17, -144.70, -219.74, 0.000, 0.000, 0.000, 23:53:18.299, 1547020398299
4, -182.60, -187.99, -149.05, -227.86, 0.000, 0.000, 0.000, 23:53:18.299, 1547020398299
4, -182.60, -187.99, -149.05, -227.86, 0.000, 0.000, 0.000, 23:53:18.299, 1547020398299
5, -180.36, -187.19, -136.41, -218.82, 0.000, 0.000, 0.000, 23:53:18.306, 1547020398306
5, -180.36, -187.19, -136.41, -218.82, 0.000, 0.000, 0.000, 23:53:18.306, 1547020398306
6, -177.28, -184.12, -137.65, -224.78, 0.000, 0.000, 0.000, 23:53:18.306, 1547020398306
6, -177.28, -184.12, -137.65, -224.78, 0.000, 0.000, 0.000, 23:53:18.306, 1547020398306
7, -175.88, -180.70, -144.06, -213.19, 0.000, 0.000, 0.000, 23:53:18.314, 1547020398314
7, -175.88, -180.70, -144.06, -213.19, 0.000, 0.000, 0.000, 23:53:18.314, 1547020398314
8, -179.15, -191.41, -144.78, -222.74, 0.000, 0.000, 0.000, 23:53:18.314, 1547020398314
8, -179.15, -191.41, -144.78, -222.74, 0.000, 0.000, 0.000, 23:53:18.314, 1547020398314
9, -184.83, -186.82, -155.22, -223.07, 0.000, 0.000, 0.000, 23:53:18.328, 1547020398328
9, -184.83, -186.82, -155.22, -223.07, 0.000, 0.000, 0.000, 23:53:18.328, 1547020398328
10, -178.13, -185.30, -144.40, -215.18, 0.000, 0.000, 0.000, 23:53:18.328, 1547020398328
10, -178.13, -185.30, -144.40, -215.18, 0.000, 0.000, 0.000, 23:53:18.328, 1547020398328
11, -180.34, -187.13, -141.80, -216.97, 0.000, 0.000, 0.000, 23:53:18.329, 1547020398329
11, -180.34, -187.13, -141.80, -216.97, 0.000, 0.000, 0.000, 23:53:18.329, 1547020398329
12, -177.02, -184.08, -135.06, -209.20, 0.000, 0.000, 0.000, 23:53:18.329, 1547020398329
12, -177.02, -184.08, -135.06, -209.20, 0.000, 0.000, 0.000, 23:53:18.329, 1547020398329
13, -175.36, -180.46, -129.81, -216.96, 0.000, 0.000, 0.000, 23:53:18.343, 1547020398343
13, -175.36, -180.46, -129.81, -216.96, 0.000, 0.000, 0.000, 23:53:18.343, 1547020398343
14, -163.27, -179.38, -144.49, -218.35, 0.000, 0.000, 0.000, 23:53:18.343, 1547020398343
14, -163.27, -179.38, -144.49, -218.35, 0.000, 0.000, 0.000, 23:53:18.343, 1547020398343
15, -173.52, -180.26, -150.44, -211.15, 0.000, 0.000, 0.000, 23:53:18.358, 1547020398358
15, -173.52, -180.26, -150.44, -211.15, 0.000, 0.000, 0.000, 23:53:18.358, 1547020398358
16, -177.48, -180.53, -149.94, -215.92, 0.000, 0.000, 0.000, 23:53:18.358, 1547020398358
16, -177.48, -180.53, -149.94, -215.92, 0.000, 0.000, 0.000, 23:53:18.358, 1547020398358
17, -178.25, -184.68, -156.79, -221.42, 0.000, 0.000, 0.000, 23:53:18.359, 1547020398359
17, -178.25, -184.68, -156.79, -221.42, 0.000, 0.000, 0.000, 23:53:18.359, 1547020398359
18, -169.33, -180.78, -147.20, -224.40, 0.000, 0.000, 0.000, 23:53:18.359, 1547020398359
18, -169.33, -180.78, -147.20, -224.40, 0.000, 0.000, 0.000, 23:53:18.359, 1547020398359
19, -169.34, -178.03, -126.40, -212.87, 0.000, 0.000, 0.000, 23:53:18.373, 1547020398373
19, -169.34, -178.03, -126.40, -212.87, 0.000, 0.000, 0.000, 23:53:18.373, 1547020398373
20, -169.06, -179.97, -136.30, -217.72, 0.000, 0.000, 0.000, 23:53:18.373, 1547020398373
20, -169.06, -179.97, -136.30, -217.72, 0.000, 0.000, 0.000, 23:53:18.373, 1547020398373
21, -174.33, -180.24, -153.92, -217.42, 0.000, 0.000, 0.000, 23:53:18.388, 1547020398388
21, -174.33, -180.24, -153.92, -217.42, 0.000, 0.000, 0.000, 23:53:18.388, 1547020398388
22, -177.11, -181.47, -151.85, -219.26, 0.000, 0.000, 0.000, 23:53:18.388, 1547020398388
22, -177.11, -181.47, -151.85, -219.26, 0.000, 0.000, 0.000, 23:53:18.388, 1547020398388
23, -177.41, -180.46, -133.62, -212.40, 0.000, 0.000, 0.000, 23:53:18.389, 1547020398389
23, -177.41, -180.46, -133.62, -212.40, 0.000, 0.000, 0.000, 23:53:18.389, 1547020398389
24, -178.08, -178.45, -138.24, -216.07, 0.000, 0.000, 0.000, 23:53:18.389, 1547020398389
24, -178.08, -178.45, -138.24, -216.07, 0.000, 0.000, 0.000, 23:53:18.389, 1547020398389
25, -174.32, -182.04, -149.90, -228.20, 0.000, 0.000, 0.000, 23:53:18.403, 1547020398403
25, -174.32, -182.04, -149.90, -228.20, 0.000, 0.000, 0.000, 23:53:18.403, 1547020398403
26, -177.93, -181.56, -153.06, -222.44, 0.000, 0.000, 0.000, 23:53:18.403, 1547020398403
26, -177.93, -181.56, -153.06, -222.44, 0.000, 0.000, 0.000, 23:53:18.403, 1547020398403
27, -169.13, -177.61, -125.03, -204.50, 0.000, 0.000, 0.000, 23:53:18.418, 1547020398418
27, -169.13, -177.61, -125.03, -204.50, 0.000, 0.000, 0.000, 23:53:18.418, 1547020398418
28, -174.55, -178.19, -126.21, -210.76, 0.000, 0.000, 0.000, 23:53:18.418, 1547020398418
28, -174.55, -178.19, -126.21, -210.76, 0.000, 0.000, 0.000, 23:53:18.418, 1547020398418
29, -185.74, -185.37, -160.41, -220.93, 0.000, 0.000, 0.000, 23:53:18.419, 1547020398419
29, -185.74, -185.37, -160.41, -220.93, 0.000, 0.000, 0.000, 23:53:18.419, 1547020398419
30, -188.46, -187.90, -163.55, -226.19, 0.000, 0.000, 0.000, 23:53:18.419, 1547020398419
30, -188.46, -187.90, -163.55, -226.19, 0.000, 0.000, 0.000, 23:53:18.419, 1547020398419
31, -174.34, -181.00, -149.33, -214.88, 0.000, 0.000, 0.000, 23:53:18.433, 1547020398433
31, -174.34, -181.00, -149.33, -214.88, 0.000, 0.000, 0.000, 23:53:18.433, 1547020398433
32, -176.37, -178.36, -141.30, -218.17, 0.000, 0.000, 0.000, 23:53:18.433, 1547020398433
32, -176.37, -178.36, -141.30, -218.17, 0.000, 0.000, 0.000, 23:53:18.433, 1547020398433
33, -182.13, -186.16, -138.96, -217.22, 0.000, 0.000, 0.000, 23:53:18.449, 1547020398449
33, -182.13, -186.16, -138.96, -217.22, 0.000, 0.000, 0.000, 23:53:18.449, 1547020398449
34, -180.50, -186.77, -136.15, -201.85, 0.000, 0.000, 0.000, 23:53:18.449, 1547020398449
34, -180.50, -186.77, -136.15, -201.85, 0.000, 0.000, 0.000, 23:53:18.449, 1547020398449
35, -177.94, -184.96, -141.68, -212.08, 0.000, 0.000, 0.000, 23:53:18.451, 1547020398451
35, -177.94, -184.96, -141.68, -212.08, 0.000, 0.000, 0.000, 23:53:18.451, 1547020398451
36, -179.25, -181.49, -142.79, -223.30, 0.000, 0.000, 0.000, 23:53:18.451, 1547020398451
36, -179.25, -181.49, -142.79, -223.30, 0.000, 0.000, 0.000, 23:53:18.451, 1547020398451
37, -187.47, -185.87, -160.05, -228.80, 0.000, 0.000, 0.000, 23:53:18.463, 1547020398463
37, -187.47, -185.87, -160.05, -228.80, 0.000, 0.000, 0.000, 23:53:18.463, 1547020398463
38, -181.70, -189.64, -153.12, -227.27, 0.000, 0.000, 0.000, 23:53:18.463, 1547020398463
38, -181.70, -189.64, -153.12, -227.27, 0.000, 0.000, 0.000, 23:53:18.463, 1547020398463
39, -189.64, -185.10, -149.80, -228.45, 0.000, 0.000, 0.000, 23:53:18.479, 1547020398479
39, -189.64, -185.10, -149.80, -228.45, 0.000, 0.000, 0.000, 23:53:18.479, 1547020398479
40, -177.78, -176.32, -146.24, -218.70, 0.000, 0.000, 0.000, 23:53:18.479, 1547020398479
40, -177.78, -176.32, -146.24, -218.70, 0.000, 0.000, 0.000, 23:53:18.479, 1547020398479
41, -179.36, -181.76, -132.53, -216.95, 0.000, 0.000, 0.000, 23:53:18.479, 1547020398479
41, -179.36, -181.76, -132.53, -216.95, 0.000, 0.000, 0.000, 23:53:18.479, 1547020398479
42, -175.64, -182.52, -133.61, -214.43, 0.000, 0.000, 0.000, 23:53:18.479, 1547020398479
42, -175.64, -182.52, -133.61, -214.43, 0.000, 0.000, 0.000, 23:53:18.479, 1547020398479
43, -173.62, -177.09, -127.48, -207.83, 0.000, 0.000, 0.000, 23:53:18.493, 1547020398493
43, -173.62, -177.09, -127.48, -207.83, 0.000, 0.000, 0.000, 23:53:18.493, 1547020398493
44, -179.57, -184.23, -170.74, -236.60, 0.000, 0.000, 0.000, 23:53:18.493, 1547020398493
44, -179.57, -184.23, -170.74, -236.60, 0.000, 0.000, 0.000, 23:53:18.493, 1547020398493
45, -180.17, -183.71, -153.03, -239.93, 0.000, 0.000, 0.000, 23:53:18.508, 1547020398508
45, -180.17, -183.71, -153.03, -239.93, 0.000, 0.000, 0.000, 23:53:18.508, 1547020398508
46, -178.44, -179.34, -144.48, -231.15, 0.000, 0.000, 0.000, 23:53:18.508, 1547020398508
46, -178.44, -179.34, -144.48, -231.15, 0.000, 0.000, 0.000, 23:53:18.508, 1547020398508
47, -177.62, -179.19, -152.31, -223.97, 0.000, 0.000, 0.000, 23:53:18.509, 1547020398509
47, -177.62, -179.19, -152.31, -223.97, 0.000, 0.000, 0.000, 23:53:18.509, 1547020398509
48, -186.49, -187.62, -153.67, -226.01, 0.000, 0.000, 0.000, 23:53:18.509, 1547020398509
48, -186.49, -187.62, -153.67, -226.01, 0.000, 0.000, 0.000, 23:53:18.509, 1547020398509
49, -181.17, -187.67, -138.83, -219.59, 0.000, 0.000, 0.000, 23:53:18.523, 1547020398523
49, -181.17, -187.67, -138.83, -219.59, 0.000, 0.000, 0.000, 23:53:18.523, 1547020398523
50, -174.91, -182.39, -122.28, -213.83, 0.000, 0.000, 0.000, 23:53:18.523, 1547020398523
50, -174.91, -182.39, -122.28, -213.83, 0.000, 0.000, 0.000, 23:53:18.523, 1547020398523
51, -183.10, -186.90, -144.29, -214.99, 0.000, 0.000, 0.000, 23:53:18.538, 1547020398538
51, -183.10, -186.90, -144.29, -214.99, 0.000, 0.000, 0.000, 23:53:18.538, 1547020398538
52, -181.99, -185.28, -170.11, -224.63, 0.000, 0.000, 0.000, 23:53:18.538, 1547020398538
52, -181.99, -185.28, -170.11, -224.63, 0.000, 0.000, 0.000, 23:53:18.538, 1547020398538
53, -182.93, -183.08, -159.40, -226.59, 0.000, 0.000, 0.000, 23:53:18.539, 1547020398539
53, -182.93, -183.08, -159.40, -226.59, 0.000, 0.000, 0.000, 23:53:18.539, 1547020398539
54, -180.13, -187.00, -154.66, -217.85, 0.000, 0.000, 0.000, 23:53:18.539, 1547020398539
54, -180.13, -187.00, -154.66, -217.85, 0.000, 0.000, 0.000, 23:53:18.539, 1547020398539
55, -176.99, -183.15, -143.62, -224.94, 0.000, 0.000, 0.000, 23:53:18.553, 1547020398553
55, -176.99, -183.15, -143.62, -224.94, 0.000, 0.000, 0.000, 23:53:18.553, 1547020398553
56, -188.23, -187.85, -153.93, -229.99, 0.000, 0.000, 0.000, 23:53:18.553, 1547020398553
56, -188.23, -187.85, -153.93, -229.99, 0.000, 0.000, 0.000, 23:53:18.553, 1547020398553
57, -184.93, -188.60, -143.63, -223.12, 0.000, 0.000, 0.000, 23:53:18.568, 1547020398568
57, -184.93, -188.60, -143.63, -223.12, 0.000, 0.000, 0.000, 23:53:18.568, 1547020398568
58, -187.76, -190.29, -147.09, -223.87, 0.000, 0.000, 0.000, 23:53:18.568, 1547020398568
58, -187.76, -190.29, -147.09, -223.87, 0.000, 0.000, 0.000, 23:53:18.568, 1547020398568
59, -182.46, -187.08, -158.78, -213.09, 0.000, 0.000, 0.000, 23:53:18.569, 1547020398569
59, -182.46, -187.08, -158.78, -213.09, 0.000, 0.000, 0.000, 23:53:18.569, 1547020398569
60, -186.99, -189.09, -150.80, -210.45, 0.000, 0.000, 0.000, 23:53:18.569, 1547020398569
60, -186.99, -189.09, -150.80, -210.45, 0.000, 0.000, 0.000, 23:53:18.569, 1547020398569
61, -187.76, -192.78, -143.11, -222.77, 0.000, 0.000, 0.000, 23:53:18.584, 1547020398584
61, -187.76, -192.78, -143.11, -222.77, 0.000, 0.000, 0.000, 23:53:18.584, 1547020398584
62, -181.05, -190.54, -143.61, -228.41, 0.000, 0.000, 0.000, 23:53:18.584, 1547020398584
62, -181.05, -190.54, -143.61, -228.41, 0.000, 0.000, 0.000, 23:53:18.584, 1547020398584
63, -180.33, -185.06, -133.76, -215.63, 0.000, 0.000, 0.000, 23:53:18.599, 1547020398599
63, -180.33, -185.06, -133.76, -215.63, 0.000, 0.000, 0.000, 23:53:18.599, 1547020398599
64, -182.46, -183.05, -134.23, -213.62, 0.000, 0.000, 0.000, 23:53:18.599, 1547020398599
64, -182.46, -183.05, -134.23, -213.62, 0.000, 0.000, 0.000, 23:53:18.599, 1547020398599
65, -182.81, -183.35, -134.26, -218.52, 0.000, 0.000, 0.000, 23:53:18.599, 1547020398599
65, -182.81, -183.35, -134.26, -218.52, 0.000, 0.000, 0.000, 23:53:18.599, 1547020398599
66, -185.74, -188.74, -146.80, -228.96, 0.000, 0.000, 0.000, 23:53:18.599, 1547020398599
66, -185.74, -188.74, -146.80, -228.96, 0.000, 0.000, 0.000, 23:53:18.599, 1547020398599
67, -190.81, -190.67, -160.48, -222.04, 0.000, 0.000, 0.000, 23:53:18.614, 1547020398614
67, -190.81, -190.67, -160.48, -222.04, 0.000, 0.000, 0.000, 23:53:18.614, 1547020398614
68, -187.82, -186.20, -149.88, -220.33, 0.000, 0.000, 0.000, 23:53:18.614, 1547020398614
68, -187.82, -186.20, -149.88, -220.33, 0.000, 0.000, 0.000, 23:53:18.614, 1547020398614
69, -177.45, -181.73, -142.35, -206.46, 0.000, 0.000, 0.000, 23:53:18.628, 1547020398628
69, -177.45, -181.73, -142.35, -206.46, 0.000, 0.000, 0.000, 23:53:18.628, 1547020398628
70, -182.38, -186.27, -142.53, -217.57, 0.000, 0.000, 0.000, 23:53:18.628, 1547020398628
70, -182.38, -186.27, -142.53, -217.57, 0.000, 0.000, 0.000, 23:53:18.628, 1547020398628
71, -187.41, -192.65, -149.51, -227.05, 0.000, 0.000, 0.000, 23:53:18.631, 1547020398631
71, -187.41, -192.65, -149.51, -227.05, 0.000, 0.000, 0.000, 23:53:18.631, 1547020398631
72, -188.21, -188.71, -153.59, -222.05, 0.000, 0.000, 0.000, 23:53:18.631, 1547020398631
72, -188.21, -188.71, -153.59, -222.05, 0.000, 0.000, 0.000, 23:53:18.631, 1547020398631
73, -186.01, -190.09, -140.18, -205.54, 0.000, 0.000, 0.000, 23:53:18.643, 1547020398643
73, -186.01, -190.09, -140.18, -205.54, 0.000, 0.000, 0.000, 23:53:18.643, 1547020398643
74, -177.56, -183.73, -142.27, -214.99, 0.000, 0.000, 0.000, 23:53:18.643, 1547020398643
74, -177.56, -183.73, -142.27, -214.99, 0.000, 0.000, 0.000, 23:53:18.643, 1547020398643
75, -182.89, -179.85, -145.85, -228.38, 0.000, 0.000, 0.000, 23:53:18.658, 1547020398658
75, -182.89, -179.85, -145.85, -228.38, 0.000, 0.000, 0.000, 23:53:18.658, 1547020398658
76, -180.76, -182.65, -138.15, -217.39, 0.000, 0.000, 0.000, 23:53:18.658, 1547020398658
76, -180.76, -182.65, -138.15, -217.39, 0.000, 0.000, 0.000, 23:53:18.658, 1547020398658
77, -175.14, -173.04, -142.62, -208.71, 0.000, 0.000, 0.000, 23:53:18.659, 1547020398659
77, -175.14, -173.04, -142.62, -208.71, 0.000, 0.000, 0.000, 23:53:18.659, 1547020398659
78, -170.03, -173.65, -139.20, -214.29, 0.000, 0.000, 0.000, 23:53:18.659, 1547020398659
78, -170.03, -173.65, -139.20, -214.29, 0.000, 0.000, 0.000, 23:53:18.659, 1547020398659
79, -181.58, -180.40, -147.42, -214.65, 0.000, 0.000, 0.000, 23:53:18.673, 1547020398673
79, -181.58, -180.40, -147.42, -214.65, 0.000, 0.000, 0.000, 23:53:18.673, 1547020398673
80, -183.45, -181.74, -142.41, -213.71, 0.000, 0.000, 0.000, 23:53:18.673, 1547020398673
80, -183.45, -181.74, -142.41, -213.71, 0.000, 0.000, 0.000, 23:53:18.673, 1547020398673
81, -171.35, -177.61, -131.42, -210.62, 0.000, 0.000, 0.000, 23:53:18.688, 1547020398688
81, -171.35, -177.61, -131.42, -210.62, 0.000, 0.000, 0.000, 23:53:18.688, 1547020398688
82, -171.76, -180.87, -142.61, -225.83, 0.000, 0.000, 0.000, 23:53:18.688, 1547020398688
82, -171.76, -180.87, -142.61, -225.83, 0.000, 0.000, 0.000, 23:53:18.688, 1547020398688
83, -177.69, -178.05, -143.54, -223.34, 0.000, 0.000, 0.000, 23:53:18.689, 1547020398689
83, -177.69, -178.05, -143.54, -223.34, 0.000, 0.000, 0.000, 23:53:18.689, 1547020398689
84, -174.00, -177.61, -131.73, -219.58, 0.000, 0.000, 0.000, 23:53:18.689, 1547020398689
84, -174.00, -177.61, -131.73, -219.58, 0.000, 0.000, 0.000, 23:53:18.689, 1547020398689
85, -181.82, -185.92, -122.91, -210.13, 0.000, 0.000, 0.000, 23:53:18.703, 1547020398703
85, -181.82, -185.92, -122.91, -210.13, 0.000, 0.000, 0.000, 23:53:18.703, 1547020398703
86, -182.57, -183.86, -164.38, -225.71, 0.000, 0.000, 0.000, 23:53:18.703, 1547020398703
86, -182.57, -183.86, -164.38, -225.71, 0.000, 0.000, 0.000, 23:53:18.703, 1547020398703
87, -185.02, -190.47, -172.00, -231.74, 0.000, 0.000, 0.000, 23:53:18.719, 1547020398719
87, -185.02, -190.47, -172.00, -231.74, 0.000, 0.000, 0.000, 23:53:18.719, 1547020398719
88, -180.25, -183.89, -144.74, -221.96, 0.000, 0.000, 0.000, 23:53:18.719, 1547020398719
88, -180.25, -183.89, -144.74, -221.96, 0.000, 0.000, 0.000, 23:53:18.719, 1547020398719
89, -182.54, -185.32, -149.06, -218.89, 0.000, 0.000, 0.000, 23:53:18.720, 1547020398720
89, -182.54, -185.32, -149.06, -218.89, 0.000, 0.000, 0.000, 23:53:18.720, 1547020398720
90, -179.81, -183.98, -142.07, -221.94, 0.000, 0.000, 0.000, 23:53:18.720, 1547020398720
90, -179.81, -183.98, -142.07, -221.94, 0.000, 0.000, 0.000, 23:53:18.720, 1547020398720
91, -183.51, -187.04, -148.96, -223.50, 0.000, 0.000, 0.000, 23:53:18.734, 1547020398734
91, -183.51, -187.04, -148.96, -223.50, 0.000, 0.000, 0.000, 23:53:18.734, 1547020398734
92, -185.27, -189.08, -153.58, -221.91, 0.000, 0.000, 0.000, 23:53:18.734, 1547020398734
92, -185.27, -189.08, -153.58, -221.91, 0.000, 0.000, 0.000, 23:53:18.734, 1547020398734
93, -185.04, -194.81, -152.86, -223.73, 0.000, 0.000, 0.000, 23:53:18.749, 1547020398749
93, -185.04, -194.81, -152.86, -223.73, 0.000, 0.000, 0.000, 23:53:18.749, 1547020398749
94, -169.92, -183.63, -143.00, -216.41, 0.000, 0.000, 0.000, 23:53:18.749, 1547020398749
94, -169.92, -183.63, -143.00, -216.41, 0.000, 0.000, 0.000, 23:53:18.749, 1547020398749
95, -180.23, -182.39, -147.55, -227.69, 0.000, 0.000, 0.000, 23:53:18.749, 1547020398749
95, -180.23, -182.39, -147.55, -227.69, 0.000, 0.000, 0.000, 23:53:18.749, 1547020398749
96, -171.85, -176.10, -130.66, -215.08, 0.000, 0.000, 0.000, 23:53:18.749, 1547020398749
96, -171.85, -176.10, -130.66, -215.08, 0.000, 0.000, 0.000, 23:53:18.749, 1547020398749
97, -172.09, -171.75, -119.74, -208.17, 0.000, 0.000, 0.000, 23:53:18.763, 1547020398763
97, -172.09, -171.75, -119.74, -208.17, 0.000, 0.000, 0.000, 23:53:18.763, 1547020398763
98, -172.29, -179.04, -137.47, -225.01, 0.000, 0.000, 0.000, 23:53:18.763, 1547020398763
98, -172.29, -179.04, -137.47, -225.01, 0.000, 0.000, 0.000, 23:53:18.763, 1547020398763
99, -183.08, -185.26, -144.41, -218.85, 0.000, 0.000, 0.000, 23:53:18.778, 1547020398778
99, -183.08, -185.26, -144.41, -218.85, 0.000, 0.000, 0.000, 23:53:18.778, 1547020398778
100, -184.97, -189.35, -158.61, -227.46, 0.000, 0.000, 0.000, 23:53:18.778, 1547020398778
100, -184.97, -189.35, -158.61, -227.46, 0.000, 0.000, 0.000, 23:53:18.778, 1547020398778
101, -181.69, -184.14, -145.84, -227.44, 0.000, 0.000, 0.000, 23:53:18.779, 1547020398779
101, -181.69, -184.14, -145.84, -227.44, 0.000, 0.000, 0.000, 23:53:18.779, 1547020398779
102, -176.58, -183.25, -141.62, -217.77, 0.000, 0.000, 0.000, 23:53:18.779, 1547020398779
102, -176.58, -183.25, -141.62, -217.77, 0.000, 0.000, 0.000, 23:53:18.779, 1547020398779
103, -185.93, -189.64, -163.49, -234.64, 0.000, 0.000, 0.000, 23:53:18.793, 1547020398793
103, -185.93, -189.64, -163.49, -234.64, 0.000, 0.000, 0.000, 23:53:18.793, 1547020398793
104, -183.54, -188.97, -148.04, -218.79, 0.000, 0.000, 0.000, 23:53:18.793, 1547020398793
104, -183.54, -188.97, -148.04, -218.79, 0.000, 0.000, 0.000, 23:53:18.793, 1547020398793
105, -183.52, -188.56, -150.11, -209.56, 0.000, 0.000, 0.000, 23:53:18.808, 1547020398808
105, -183.52, -188.56, -150.11, -209.56, 0.000, 0.000, 0.000, 23:53:18.808, 1547020398808
106, -178.95, -188.14, -150.25, -214.95, 0.000, 0.000, 0.000, 23:53:18.808, 1547020398808
106, -178.95, -188.14, -150.25, -214.95, 0.000, 0.000, 0.000, 23:53:18.808, 1547020398808
107, -182.92, -185.93, -150.90, -228.26, 0.000, 0.000, 0.000, 23:53:18.809, 1547020398809
107, -182.92, -185.93, -150.90, -228.26, 0.000, 0.000, 0.000, 23:53:18.809, 1547020398809
108, -180.72, -183.84, -138.86, -218.90, 0.000, 0.000, 0.000, 23:53:18.809, 1547020398809
108, -180.72, -183.84, -138.86, -218.90, 0.000, 0.000, 0.000, 23:53:18.809, 1547020398809
109, -174.90, -183.44, -119.92, -213.46, 0.000, 0.000, 0.000, 23:53:18.823, 1547020398823
109, -174.90, -183.44, -119.92, -213.46, 0.000, 0.000, 0.000, 23:53:18.823, 1547020398823
110, -170.83, -175.66, -128.78, -209.25, 0.000, 0.000, 0.000, 23:53:18.823, 1547020398823
110, -170.83, -175.66, -128.78, -209.25, 0.000, 0.000, 0.000, 23:53:18.823, 1547020398823
111, -178.32, -185.60, -155.61, -222.48, 0.000, 0.000, 0.000, 23:53:18.838, 1547020398838
111, -178.32, -185.60, -155.61, -222.48, 0.000, 0.000, 0.000, 23:53:18.838, 1547020398838
112, -180.40, -183.94, -158.96, -219.67, 0.000, 0.000, 0.000, 23:53:18.838, 1547020398838
112, -180.40, -183.94, -158.96, -219.67, 0.000, 0.000, 0.000, 23:53:18.838, 1547020398838
113, -178.83, -183.51, -152.57, -218.32, 0.000, 0.000, 0.000, 23:53:18.839, 1547020398839
113, -178.83, -183.51, -152.57, -218.32, 0.000, 0.000, 0.000, 23:53:18.839, 1547020398839
114, -173.45, -182.21, -135.58, -213.01, 0.000, 0.000, 0.000, 23:53:18.839, 1547020398839
114, -173.45, -182.21, -135.58, -213.01, 0.000, 0.000, 0.000, 23:53:18.839, 1547020398839
115, -174.90, -176.96, -123.84, -207.04, 0.000, 0.000, 0.000, 23:53:18.853, 1547020398853
115, -174.90, -176.96, -123.84, -207.04, 0.000, 0.000, 0.000, 23:53:18.853, 1547020398853
116, -178.45, -183.46, -172.52, -224.64, 0.000, 0.000, 0.000, 23:53:18.853, 1547020398853
116, -178.45, -183.46, -172.52, -224.64, 0.000, 0.000, 0.000, 23:53:18.853, 1547020398853
117, -179.64, -183.03, -154.45, -221.37, 0.000, 0.000, 0.000, 23:53:18.873, 1547020398873
117, -179.64, -183.03, -154.45, -221.37, 0.000, 0.000, 0.000, 23:53:18.873, 1547020398873
118, -174.03, -177.70, -125.86, -217.52, 0.000, 0.000, 0.000, 23:53:18.873, 1547020398873
118, -174.03, -177.70, -125.86, -217.52, 0.000, 0.000, 0.000, 23:53:18.873, 1547020398873
119, -175.77, -174.75, -155.76, -220.78, 0.000, 0.000, 0.000, 23:53:18.873, 1547020398873
119, -175.77, -174.75, -155.76, -220.78, 0.000, 0.000, 0.000, 23:53:18.873, 1547020398873
120, -183.98, -185.17, -162.28, -232.74, 0.000, 0.000, 0.000, 23:53:18.873, 1547020398873
120, -183.98, -185.17, -162.28, -232.74, 0.000, 0.000, 0.000, 23:53:18.873, 1547020398873
121, -185.24, -189.86, -150.51, -238.26, 0.000, 0.000, 0.000, 23:53:18.883, 1547020398883
121, -185.24, -189.86, -150.51, -238.26, 0.000, 0.000, 0.000, 23:53:18.883, 1547020398883
122, -175.81, -187.72, -157.28, -229.72, 0.000, 0.000, 0.000, 23:53:18.883, 1547020398883
122, -175.81, -187.72, -157.28, -229.72, 0.000, 0.000, 0.000, 23:53:18.883, 1547020398883
123, -176.35, -179.35, -138.64, -216.43, 0.000, 0.000, 0.000, 23:53:18.898, 1547020398898
123, -176.35, -179.35, -138.64, -216.43, 0.000, 0.000, 0.000, 23:53:18.898, 1547020398898
124, -184.93, -190.75, -123.84, -203.64, 0.000, 0.000, 0.000, 23:53:18.898, 1547020398898
124, -184.93, -190.75, -123.84, -203.64, 0.000, 0.000, 0.000, 23:53:18.898, 1547020398898
125, -192.44, -199.68, -146.43, -223.89, 0.000, 0.000, 0.000, 23:53:18.902, 1547020398902
125, -192.44, -199.68, -146.43, -223.89, 0.000, 0.000, 0.000, 23:53:18.902, 1547020398902
126, -177.30, -177.77, -153.36, -233.32, 0.000, 0.000, 0.000, 23:53:18.902, 1547020398902
126, -177.30, -177.77, -153.36, -233.32, 0.000, 0.000, 0.000, 23:53:18.902, 1547020398902
127, -182.13, -184.72, -134.94, -223.65, 0.000, 0.000, 0.000, 23:53:18.914, 1547020398914
127, -182.13, -184.72, -134.94, -223.65, 0.000, 0.000, 0.000, 23:53:18.914, 1547020398914
128, -179.01, -179.95, -135.84, -214.08, 0.000, 0.000, 0.000, 23:53:18.914, 1547020398914
128, -179.01, -179.95, -135.84, -214.08, 0.000, 0.000, 0.000, 23:53:18.914, 1547020398914
129, -187.17, -191.79, -158.42, -223.00, 0.000, 0.000, 0.000, 23:53:18.928, 1547020398928
129, -187.17, -191.79, -158.42, -223.00, 0.000, 0.000, 0.000, 23:53:18.928, 1547020398928
130, -179.34, -183.82, -139.47, -217.61, 0.000, 0.000, 0.000, 23:53:18.928, 1547020398928
130, -179.34, -183.82, -139.47, -217.61, 0.000, 0.000, 0.000, 23:53:18.928, 1547020398928
131, -170.72, -181.73, -135.37, -218.20, 0.000, 0.000, 0.000, 23:53:18.930, 1547020398930
131, -170.72, -181.73, -135.37, -218.20, 0.000, 0.000, 0.000, 23:53:18.930, 1547020398930
132, -183.66, -190.99, -147.02, -217.75, 0.000, 0.000, 0.000, 23:53:18.930, 1547020398930
132, -183.66, -190.99, -147.02, -217.75, 0.000, 0.000, 0.000, 23:53:18.930, 1547020398930
133, -175.04, -187.91, -151.06, -219.06, 0.000, 0.000, 0.000, 23:53:18.943, 1547020398943
133, -175.04, -187.91, -151.06, -219.06, 0.000, 0.000, 0.000, 23:53:18.943, 1547020398943
134, -174.44, -182.84, -133.26, -210.22, 0.000, 0.000, 0.000, 23:53:18.943, 1547020398943
134, -174.44, -182.84, -133.26, -210.22, 0.000, 0.000, 0.000, 23:53:18.943, 1547020398943
135, -170.81, -183.43, -124.60, -213.04, 0.000, 0.000, 0.000, 23:53:18.958, 1547020398958
135, -170.81, -183.43, -124.60, -213.04, 0.000, 0.000, 0.000, 23:53:18.958, 1547020398958
136, -173.77, -186.74, -155.27, -217.92, 0.000, 0.000, 0.000, 23:53:18.958, 1547020398958
136, -173.77, -186.74, -155.27, -217.92, 0.000, 0.000, 0.000, 23:53:18.958, 1547020398958
137, -178.61, -186.79, -145.00, -217.22, 0.000, 0.000, 0.000, 23:53:18.959, 1547020398959
137, -178.61, -186.79, -145.00, -217.22, 0.000, 0.000, 0.000, 23:53:18.959, 1547020398959
138, -175.82, -186.33, -142.63, -216.46, 0.000, 0.000, 0.000, 23:53:18.959, 1547020398959
138, -175.82, -186.33, -142.63, -216.46, 0.000, 0.000, 0.000, 23:53:18.959, 1547020398959
139, -170.80, -185.64, -142.44, -221.39, 0.000, 0.000, 0.000, 23:53:18.973, 1547020398973
139, -170.80, -185.64, -142.44, -221.39, 0.000, 0.000, 0.000, 23:53:18.973, 1547020398973
140, -173.04, -186.66, -136.87, -220.26, 0.000, 0.000, 0.000, 23:53:18.973, 1547020398973
140, -173.04, -186.66, -136.87, -220.26, 0.000, 0.000, 0.000, 23:53:18.973, 1547020398973
141, -167.19, -181.79, -143.29, -211.70, 0.000, 0.000, 0.000, 23:53:18.989, 1547020398989
141, -167.19, -181.79, -143.29, -211.70, 0.000, 0.000, 0.000, 23:53:18.989, 1547020398989
142, -170.98, -187.61, -137.94, -219.39, 0.000, 0.000, 0.000, 23:53:18.989, 1547020398989
142, -170.98, -187.61, -137.94, -219.39, 0.000, 0.000, 0.000, 23:53:18.989, 1547020398989
143, -171.26, -185.69, -159.53, -215.85, 0.000, 0.000, 0.000, 23:53:18.990, 1547020398990
143, -171.26, -185.69, -159.53, -215.85, 0.000, 0.000, 0.000, 23:53:18.990, 1547020398990
144, -180.87, -194.19, -157.05, -227.63, 0.000, 0.000, 0.000, 23:53:18.990, 1547020398990
144, -180.87, -194.19, -157.05, -227.63, 0.000, 0.000, 0.000, 23:53:18.990, 1547020398990
145, -176.86, -191.78, -152.74, -228.65, 0.000, 0.000, 0.000, 23:53:19.009, 1547020399009
145, -176.86, -191.78, -152.74, -228.65, 0.000, 0.000, 0.000, 23:53:19.009, 1547020399009
146, -173.52, -187.35, -141.50, -209.63, 0.000, 0.000, 0.000, 23:53:19.009, 1547020399009
146, -173.52, -187.35, -141.50, -209.63, 0.000, 0.000, 0.000, 23:53:19.009, 1547020399009
147, -182.08, -192.72, -163.31, -235.31, 0.000, 0.000, 0.000, 23:53:19.018, 1547020399018
147, -182.08, -192.72, -163.31, -235.31, 0.000, 0.000, 0.000, 23:53:19.018, 1547020399018
148, -183.95, -191.08, -159.13, -227.74, 0.000, 0.000, 0.000, 23:53:19.018, 1547020399018
148, -183.95, -191.08, -159.13, -227.74, 0.000, 0.000, 0.000, 23:53:19.018, 1547020399018
149, -187.20, -197.36, -157.85, -230.29, 0.000, 0.000, 0.000, 23:53:19.019, 1547020399019
149, -187.20, -197.36, -157.85, -230.29, 0.000, 0.000, 0.000, 23:53:19.019, 1547020399019
150, -178.09, -191.66, -142.23, -214.60, 0.000, 0.000, 0.000, 23:53:19.019, 1547020399019
150, -178.09, -191.66, -142.23, -214.60, 0.000, 0.000, 0.000, 23:53:19.019, 1547020399019
151, -172.45, -184.76, -134.35, -214.51, 0.000, 0.000, 0.000, 23:53:19.033, 1547020399033
151, -172.45, -184.76, -134.35, -214.51, 0.000, 0.000, 0.000, 23:53:19.033, 1547020399033
152, -179.56, -191.04, -130.73, -216.85, 0.000, 0.000, 0.000, 23:53:19.033, 1547020399033
152, -179.56, -191.04, -130.73, -216.85, 0.000, 0.000, 0.000, 23:53:19.033, 1547020399033
153, -175.92, -184.33, -145.98, -225.98, 0.000, 0.000, 0.000, 23:53:19.048, 1547020399048
153, -175.92, -184.33, -145.98, -225.98, 0.000, 0.000, 0.000, 23:53:19.048, 1547020399048
154, -182.69, -187.97, -168.46, -234.52, 0.000, 0.000, 0.000, 23:53:19.048, 1547020399048
154, -182.69, -187.97, -168.46, -234.52, 0.000, 0.000, 0.000, 23:53:19.048, 1547020399048
155, -173.70, -178.96, -154.96, -232.77, 0.000, 0.000, 0.000, 23:53:19.049, 1547020399049
155, -173.70, -178.96, -154.96, -232.77, 0.000, 0.000, 0.000, 23:53:19.049, 1547020399049
156, -178.70, -190.51, -152.79, -226.88, 0.000, 0.000, 0.000, 23:53:19.049, 1547020399049
156, -178.70, -190.51, -152.79, -226.88, 0.000, 0.000, 0.000, 23:53:19.049, 1547020399049
157, -185.94, -193.93, -135.90, -224.69, 0.000, 0.000, 0.000, 23:53:19.063, 1547020399063
157, -185.94, -193.93, -135.90, -224.69, 0.000, 0.000, 0.000, 23:53:19.063, 1547020399063
158, -180.09, -193.16, -140.67, -220.10, 0.000, 0.000, 0.000, 23:53:19.063, 1547020399063
158, -180.09, -193.16, -140.67, -220.10, 0.000, 0.000, 0.000, 23:53:19.063, 1547020399063
159, -190.72, -196.66, -181.76, -247.68, 0.000, 0.000, 0.000, 23:53:19.078, 1547020399078
159, -190.72, -196.66, -181.76, -247.68, 0.000, 0.000, 0.000, 23:53:19.078, 1547020399078
160, -191.33, -194.26, -170.38, -241.44, 0.000, 0.000, 0.000, 23:53:19.078, 1547020399078
160, -191.33, -194.26, -170.38, -241.44, 0.000, 0.000, 0.000, 23:53:19.078, 1547020399078
161, -177.65, -182.33, -148.00, -232.50, 0.000, 0.000, 0.000, 23:53:19.079, 1547020399079
161, -177.65, -182.33, -148.00, -232.50, 0.000, 0.000, 0.000, 23:53:19.079, 1547020399079
162, -181.56, -180.20, -135.13, -217.45, 0.000, 0.000, 0.000, 23:53:19.079, 1547020399079
162, -181.56, -180.20, -135.13, -217.45, 0.000, 0.000, 0.000, 23:53:19.079, 1547020399079
163, -173.00, -178.89, -139.10, -214.10, 0.000, 0.000, 0.000, 23:53:19.093, 1547020399093
163, -173.00, -178.89, -139.10, -214.10, 0.000, 0.000, 0.000, 23:53:19.093, 1547020399093
164, -181.92, -185.43, -174.66, -235.58, 0.000, 0.000, 0.000, 23:53:19.093, 1547020399093
164, -181.92, -185.43, -174.66, -235.58, 0.000, 0.000, 0.000, 23:53:19.093, 1547020399093
165, -189.87, -195.33, -161.41, -233.54, 0.000, 0.000, 0.000, 23:53:19.108, 1547020399108
165, -189.87, -195.33, -161.41, -233.54, 0.000, 0.000, 0.000, 23:53:19.108, 1547020399108
166, -184.57, -191.02, -143.88, -224.49, 0.000, 0.000, 0.000, 23:53:19.108, 1547020399108
166, -184.57, -191.02, -143.88, -224.49, 0.000, 0.000, 0.000, 23:53:19.108, 1547020399108
167, -186.03, -185.91, -133.44, -219.45, 0.000, 0.000, 0.000, 23:53:19.109, 1547020399109
167, -186.03, -185.91, -133.44, -219.45, 0.000, 0.000, 0.000, 23:53:19.109, 1547020399109
168, -184.07, -183.37, -167.46, -229.50, 0.000, 0.000, 0.000, 23:53:19.109, 1547020399109
168, -184.07, -183.37, -167.46, -229.50, 0.000, 0.000, 0.000, 23:53:19.109, 1547020399109
169, -189.43, -190.65, -155.64, -232.39, 0.000, 0.000, 0.000, 23:53:19.124, 1547020399124
169, -189.43, -190.65, -155.64, -232.39, 0.000, 0.000, 0.000, 23:53:19.124, 1547020399124
170, -179.98, -181.55, -140.11, -218.09, 0.000, 0.000, 0.000, 23:53:19.124, 1547020399124
170, -179.98, -181.55, -140.11, -218.09, 0.000, 0.000, 0.000, 23:53:19.124, 1547020399124
171, -181.79, -182.62, -143.26, -206.13, 0.000, 0.000, 0.000, 23:53:19.138, 1547020399138
171, -181.79, -182.62, -143.26, -206.13, 0.000, 0.000, 0.000, 23:53:19.138, 1547020399138
172, -184.61, -184.17, -151.98, -216.07, 0.000, 0.000, 0.000, 23:53:19.138, 1547020399138
172, -184.61, -184.17, -151.98, -216.07, 0.000, 0.000, 0.000, 23:53:19.138, 1547020399138
173, -187.19, -186.01, -163.36, -230.39, 0.000, 0.000, 0.000, 23:53:19.139, 1547020399139
173, -187.19, -186.01, -163.36, -230.39, 0.000, 0.000, 0.000, 23:53:19.139, 1547020399139
174, -177.88, -179.27, -140.72, -220.35, 0.000, 0.000, 0.000, 23:53:19.139, 1547020399139
174, -177.88, -179.27, -140.72, -220.35, 0.000, 0.000, 0.000, 23:53:19.139, 1547020399139
175, -175.61, -172.64, -147.75, -220.61, 0.000, 0.000, 0.000, 23:53:19.153, 1547020399153
175, -175.61, -172.64, -147.75, -220.61, 0.000, 0.000, 0.000, 23:53:19.153, 1547020399153
176, -179.60, -172.33, -137.60, -217.33, 0.000, 0.000, 0.000, 23:53:19.153, 1547020399153
176, -179.60, -172.33, -137.60, -217.33, 0.000, 0.000, 0.000, 23:53:19.153, 1547020399153
177, -181.35, -181.47, -143.98, -223.25, 0.000, 0.000, 0.000, 23:53:19.168, 1547020399168
177, -181.35, -181.47, -143.98, -223.25, 0.000, 0.000, 0.000, 23:53:19.168, 1547020399168
178, -177.47, -178.33, -137.35, -219.57, 0.000, 0.000, 0.000, 23:53:19.168, 1547020399168
178, -177.47, -178.33, -137.35, -219.57, 0.000, 0.000, 0.000, 23:53:19.168, 1547020399168
179, -175.10, -177.63, -137.47, -211.35, 0.000, 0.000, 0.000, 23:53:19.176, 1547020399176
179, -175.10, -177.63, -137.47, -211.35, 0.000, 0.000, 0.000, 23:53:19.176, 1547020399176
180, -180.10, -176.04, -117.73, -194.71, 0.000, 0.000, 0.000, 23:53:19.176, 1547020399176
180, -180.10, -176.04, -117.73, -194.71, 0.000, 0.000, 0.000, 23:53:19.176, 1547020399176
181, -179.58, -185.10, -149.82, -213.39, 0.000, 0.000, 0.000, 23:53:19.184, 1547020399184
181, -179.58, -185.10, -149.82, -213.39, 0.000, 0.000, 0.000, 23:53:19.184, 1547020399184
182, -181.27, -185.33, -159.81, -237.24, 0.000, 0.000, 0.000, 23:53:19.184, 1547020399184
182, -181.27, -185.33, -159.81, -237.24, 0.000, 0.000, 0.000, 23:53:19.184, 1547020399184
183, -175.20, -177.85, -140.83, -217.54, 0.000, 0.000, 0.000, 23:53:19.198, 1547020399198
183, -175.20, -177.85, -140.83, -217.54, 0.000, 0.000, 0.000, 23:53:19.198, 1547020399198
184, -168.20, -168.95, -145.96, -207.24, 0.000, 0.000, 0.000, 23:53:19.198, 1547020399198
184, -168.20, -168.95, -145.96, -207.24, 0.000, 0.000, 0.000, 23:53:19.198, 1547020399198
185, -175.66, -175.54, -136.47, -215.71, 0.000, 0.000, 0.000, 23:53:19.199, 1547020399199
185, -175.66, -175.54, -136.47, -215.71, 0.000, 0.000, 0.000, 23:53:19.199, 1547020399199
186, -168.57, -176.07, -146.45, -221.51, 0.000, 0.000, 0.000, 23:53:19.199, 1547020399199
186, -168.57, -176.07, -146.45, -221.51, 0.000, 0.000, 0.000, 23:53:19.199, 1547020399199
187, -175.53, -178.02, -145.38, -219.51, 0.000, 0.000, 0.000, 23:53:19.213, 1547020399213
187, -175.53, -178.02, -145.38, -219.51, 0.000, 0.000, 0.000, 23:53:19.213, 1547020399213
188, -176.30, -177.36, -140.55, -220.63, 0.000, 0.000, 0.000, 23:53:19.213, 1547020399213
188, -176.30, -177.36, -140.55, -220.63, 0.000, 0.000, 0.000, 23:53:19.213, 1547020399213
189, -177.13, -181.35, -147.92, -221.46, 0.000, 0.000, 0.000, 23:53:19.228, 1547020399228
189, -177.13, -181.35, -147.92, -221.46, 0.000, 0.000, 0.000, 23:53:19.228, 1547020399228
190, -173.06, -180.02, -147.02, -217.71, 0.000, 0.000, 0.000, 23:53:19.228, 1547020399228
190, -173.06, -180.02, -147.02, -217.71, 0.000, 0.000, 0.000, 23:53:19.228, 1547020399228
191, -172.40, -175.85, -134.14, -212.45, 0.000, 0.000, 0.000, 23:53:19.231, 1547020399231
191, -172.40, -175.85, -134.14, -212.45, 0.000, 0.000, 0.000, 23:53:19.231, 1547020399231
192, -185.69, -180.31, -141.36, -218.26, 0.000, 0.000, 0.000, 23:53:19.231, 1547020399231
192, -185.69, -180.31, -141.36, -218.26, 0.000, 0.000, 0.000, 23:53:19.231, 1547020399231
193, -189.34, -188.49, -151.39, -225.82, 0.000, 0.000, 0.000, 23:53:19.244, 1547020399244
193, -189.34, -188.49, -151.39, -225.82, 0.000, 0.000, 0.000, 23:53:19.244, 1547020399244
194, -178.43, -180.30, -142.90, -220.56, 0.000, 0.000, 0.000, 23:53:19.244, 1547020399244
194, -178.43, -180.30, -142.90, -220.56, 0.000, 0.000, 0.000, 23:53:19.244, 1547020399244
195, -182.13, -180.53, -167.36, -241.32, 0.000, 0.000, 0.000, 23:53:19.259, 1547020399259
195, -182.13, -180.53, -167.36, -241.32, 0.000, 0.000, 0.000, 23:53:19.259, 1547020399259
196, -183.73, -179.75, -162.26, -232.52, 0.000, 0.000, 0.000, 23:53:19.259, 1547020399259
196, -183.73, -179.75, -162.26, -232.52, 0.000, 0.000, 0.000, 23:53:19.259, 1547020399259
197, -186.21, -181.44, -149.83, -225.75, 0.000, 0.000, 0.000, 23:53:19.260, 1547020399260
197, -186.21, -181.44, -149.83, -225.75, 0.000, 0.000, 0.000, 23:53:19.260, 1547020399260
198, -176.98, -173.20, -140.72, -216.55, 0.000, 0.000, 0.000, 23:53:19.260, 1547020399260
198, -176.98, -173.20, -140.72, -216.55, 0.000, 0.000, 0.000, 23:53:19.260, 1547020399260
199, -166.13, -166.97, -127.98, -207.61, 0.000, 0.000, 0.000, 23:53:19.274, 1547020399274
199, -166.13, -166.97, -127.98, -207.61, 0.000, 0.000, 0.000, 23:53:19.274, 1547020399274
200, -173.02, -173.90, -132.99, -205.72, 0.000, 0.000, 0.000, 23:53:19.274, 1547020399274
200, -173.02, -173.90, -132.99, -205.72, 0.000, 0.000, 0.000, 23:53:19.274, 1547020399274
0, -182.83, -182.69, -141.40, -216.03, 0.000, 0.000, 0.000, 23:53:19.274, 1547020399274
0, -182.83, -182.69, -141.40, -216.03, 0.000, 0.000, 0.000, 23:53:19.274, 1547020399274
1, -178.58, -178.46, -134.46, -216.78, 0.000, 0.000, 0.000, 23:53:19.288, 1547020399288
1, -178.58, -178.46, -134.46, -216.78, 0.000, 0.000, 0.000, 23:53:19.288, 1547020399288
2, -182.35, -178.19, -138.47, -205.53, 0.000, 0.000, 0.000, 23:53:19.288, 1547020399288
2, -182.35, -178.19, -138.47, -205.53, 0.000, 0.000, 0.000, 23:53:19.288, 1547020399288
3, -185.82, -183.70, -151.68, -217.91, 0.000, 0.000, 0.000, 23:53:19.304, 1547020399304
3, -185.82, -183.70, -151.68, -217.91, 0.000, 0.000, 0.000, 23:53:19.304, 1547020399304
4, -174.62, -175.94, -132.41, -206.64, 0.000, 0.000, 0.000, 23:53:19.304, 1547020399304
4, -174.62, -175.94, -132.41, -206.64, 0.000, 0.000, 0.000, 23:53:19.304, 1547020399304
5, -166.84, -173.66, -123.93, -201.55, 0.000, 0.000, 0.000, 23:53:19.305, 1547020399305
5, -166.84, -173.66, -123.93, -201.55, 0.000, 0.000, 0.000, 23:53:19.305, 1547020399305
6, -166.06, -169.80, -131.27, -209.58, 0.000, 0.000, 0.000, 23:53:19.305, 1547020399305
6, -166.06, -169.80, -131.27, -209.58, 0.000, 0.000, 0.000, 23:53:19.305, 1547020399305
7, -179.26, -181.79, -140.64, -214.26, 0.000, 0.000, 0.000, 23:53:19.318, 1547020399318
7, -179.26, -181.79, -140.64, -214.26, 0.000, 0.000, 0.000, 23:53:19.318, 1547020399318
8, -172.26, -171.00, -137.79, -215.80, 0.000, 0.000, 0.000, 23:53:19.318, 1547020399318
8, -172.26, -171.00, -137.79, -215.80, 0.000, 0.000, 0.000, 23:53:19.318, 1547020399318
9, -174.43, -174.39, -145.47, -215.51, 0.000, 0.000, 0.000, 23:53:19.333, 1547020399333
9, -174.43, -174.39, -145.47, -215.51, 0.000, 0.000, 0.000, 23:53:19.333, 1547020399333
10, -180.14, -180.61, -146.92, -214.31, 0.000, 0.000, 0.000, 23:53:19.333, 1547020399333
10, -180.14, -180.61, -146.92, -214.31, 0.000, 0.000, 0.000, 23:53:19.333, 1547020399333
11, -185.91, -182.50, -148.68, -226.62, 0.000, 0.000, 0.000, 23:53:19.334, 1547020399334
11, -185.91, -182.50, -148.68, -226.62, 0.000, 0.000, 0.000, 23:53:19.334, 1547020399334
12, -179.14, -180.01, -138.62, -218.63, 0.000, 0.000, 0.000, 23:53:19.334, 1547020399334
12, -179.14, -180.01, -138.62, -218.63, 0.000, 0.000, 0.000, 23:53:19.334, 1547020399334
13, -183.51, -182.14, -153.39, -231.20, 0.000, 0.000, 0.000, 23:53:19.348, 1547020399348
13, -183.51, -182.14, -153.39, -231.20, 0.000, 0.000, 0.000, 23:53:19.348, 1547020399348
14, -185.21, -186.06, -152.60, -224.74, 0.000, 0.000, 0.000, 23:53:19.348, 1547020399348
14, -185.21, -186.06, -152.60, -224.74, 0.000, 0.000, 0.000, 23:53:19.348, 1547020399348
15, -187.28, -186.69, -153.92, -226.06, 0.000, 0.000, 0.000, 23:53:19.363, 1547020399363
15, -187.28, -186.69, -153.92, -226.06, 0.000, 0.000, 0.000, 23:53:19.363, 1547020399363
16, -183.81, -183.06, -148.31, -226.97, 0.000, 0.000, 0.000, 23:53:19.363, 1547020399363
16, -183.81, -183.06, -148.31, -226.97, 0.000, 0.000, 0.000, 23:53:19.363, 1547020399363
17, -175.90, -179.52, -146.27, -224.54, 0.000, 0.000, 0.000, 23:53:19.364, 1547020399364
17, -175.90, -179.52, -146.27, -224.54, 0.000, 0.000, 0.000, 23:53:19.364, 1547020399364
18, -188.84, -183.01, -145.95, -216.56, 0.000, 0.000, 0.000, 23:53:19.364, 1547020399364
18, -188.84, -183.01, -145.95, -216.56, 0.000, 0.000, 0.000, 23:53:19.364, 1547020399364
19, -185.65, -183.20, -140.88, -228.50, 0.000, 0.000, 0.000, 23:53:19.378, 1547020399378
19, -185.65, -183.20, -140.88, -228.50, 0.000, 0.000, 0.000, 23:53:19.378, 1547020399378
20, -192.74, -194.92, -153.82, -238.75, 0.000, 0.000, 0.000, 23:53:19.378, 1547020399378
20, -192.74, -194.92, -153.82, -238.75, 0.000, 0.000, 0.000, 23:53:19.378, 1547020399378
21, -183.82, -184.51, -137.67, -223.60, 0.000, 0.000, 0.000, 23:53:19.394, 1547020399394
21, -183.82, -184.51, -137.67, -223.60, 0.000, 0.000, 0.000, 23:53:19.394, 1547020399394
22, -190.64, -190.09, -162.39, -245.48, 0.000, 0.000, 0.000, 23:53:19.394, 1547020399394
22, -190.64, -190.09, -162.39, -245.48, 0.000, 0.000, 0.000, 23:53:19.394, 1547020399394
23, -189.82, -188.61, -169.15, -244.14, 0.000, 0.000, 0.000, 23:53:19.395, 1547020399395
23, -189.82, -188.61, -169.15, -244.14, 0.000, 0.000, 0.000, 23:53:19.395, 1547020399395
24, -187.42, -190.58, -169.91, -247.16, 0.000, 0.000, 0.000, 23:53:19.395, 1547020399395
24, -187.42, -190.58, -169.91, -247.16, 0.000, 0.000, 0.000, 23:53:19.395, 1547020399395
25, -180.05, -186.20, -149.96, -234.10, 0.000, 0.000, 0.000, 23:53:19.409, 1547020399409
25, -180.05, -186.20, -149.96, -234.10, 0.000, 0.000, 0.000, 23:53:19.409, 1547020399409
26, -179.74, -186.41, -139.24, -230.46, 0.000, 0.000, 0.000, 23:53:19.409, 1547020399409
26, -179.74, -186.41, -139.24, -230.46, 0.000, 0.000, 0.000, 23:53:19.409, 1547020399409
27, -187.42, -181.83, -172.90, -249.30, 0.000, 0.000, 0.000, 23:53:19.423, 1547020399423
27, -187.42, -181.83, -172.90, -249.30, 0.000, 0.000, 0.000, 23:53:19.423, 1547020399423
28, -185.97, -183.02, -170.55, -248.53, 0.000, 0.000, 0.000, 23:53:19.423, 1547020399423
28, -185.97, -183.02, -170.55, -248.53, 0.000, 0.000, 0.000, 23:53:19.423, 1547020399423
29, -179.39, -180.05, -160.24, -235.84, 0.000, 0.000, 0.000, 23:53:19.424, 1547020399424
29, -179.39, -180.05, -160.24, -235.84, 0.000, 0.000, 0.000, 23:53:19.424, 1547020399424
30, -178.88, -180.12, -151.80, -240.96, 0.000, 0.000, 0.000, 23:53:19.424, 1547020399424
30, -178.88, -180.12, -151.80, -240.96, 0.000, 0.000, 0.000, 23:53:19.424, 1547020399424
31, -192.48, -188.40, -168.26, -257.17, 0.000, 0.000, 0.000, 23:53:19.439, 1547020399439
31, -192.48, -188.40, -168.26, -257.17, 0.000, 0.000, 0.000, 23:53:19.439, 1547020399439
32, -182.31, -181.53, -156.72, -238.73, 0.000, 0.000, 0.000, 23:53:19.439, 1547020399439
32, -182.31, -181.53, -156.72, -238.73, 0.000, 0.000, 0.000, 23:53:19.439, 1547020399439
33, -181.62, -181.40, -127.91, -221.42, 0.000, 0.000, 0.000, 23:53:19.454, 1547020399454
33, -181.62, -181.40, -127.91, -221.42, 0.000, 0.000, 0.000, 23:53:19.454, 1547020399454
34, -181.81, -176.00, -116.79, -211.37, 0.000, 0.000, 0.000, 23:53:19.454, 1547020399454
34, -181.81, -176.00, -116.79, -211.37, 0.000, 0.000, 0.000, 23:53:19.454, 1547020399454
35, -180.09, -178.92, -116.17, -207.08, 0.000, 0.000, 0.000, 23:53:19.454, 1547020399454
35, -180.09, -178.92, -116.17, -207.08, 0.000, 0.000, 0.000, 23:53:19.454, 1547020399454
36, -185.61, -179.42, -144.59, -214.60, 0.000, 0.000, 0.000, 23:53:19.454, 1547020399454
36, -185.61, -179.42, -144.59, -214.60, 0.000, 0.000, 0.000, 23:53:19.454, 1547020399454
37, -183.15, -176.55, -138.32, -212.15, 0.000, 0.000, 0.000, 23:53:19.469, 1547020399469
37, -183.15, -176.55, -138.32, -212.15, 0.000, 0.000, 0.000, 23:53:19.469, 1547020399469
38, -176.64, -170.37, -137.34, -205.67, 0.000, 0.000, 0.000, 23:53:19.469, 1547020399469
38, -176.64, -170.37, -137.34, -205.67, 0.000, 0.000, 0.000, 23:53:19.469, 1547020399469
39, -188.78, -184.27, -148.14, -212.67, 0.000, 0.000, 0.000, 23:53:19.484, 1547020399484
39, -188.78, -184.27, -148.14, -212.67, 0.000, 0.000, 0.000, 23:53:19.484, 1547020399484
40, -182.19, -180.60, -132.13, -203.98, 0.000, 0.000, 0.000, 23:53:19.484, 1547020399484
40, -182.19, -180.60, -132.13, -203.98, 0.000, 0.000, 0.000, 23:53:19.484, 1547020399484
41, -177.74, -183.81, -133.37, -216.59, 0.000, 0.000, 0.000, 23:53:19.484, 1547020399484
41, -177.74, -183.81, -133.37, -216.59, 0.000, 0.000, 0.000, 23:53:19.484, 1547020399484
42, -186.83, -187.59, -138.82, -221.84, 0.000, 0.000, 0.000, 23:53:19.484, 1547020399484
42, -186.83, -187.59, -138.82, -221.84, 0.000, 0.000, 0.000, 23:53:19.484, 1547020399484
43, -176.42, -176.78, -134.53, -218.73, 0.000, 0.000, 0.000, 23:53:19.499, 1547020399499
43, -176.42, -176.78, -134.53, -218.73, 0.000, 0.000, 0.000, 23:53:19.499, 1547020399499
44, -172.41, -179.32, -139.60, -230.56, 0.000, 0.000, 0.000, 23:53:19.499, 1547020399499
44, -172.41, -179.32, -139.60, -230.56, 0.000, 0.000, 0.000, 23:53:19.499, 1547020399499
45, -169.58, -178.10, -137.01, -216.46, 0.000, 0.000, 0.000, 23:53:19.513, 1547020399513
45, -169.58, -178.10, -137.01, -216.46, 0.000, 0.000, 0.000, 23:53:19.513, 1547020399513
46, -168.57, -175.89, -137.96, -210.20, 0.000, 0.000, 0.000, 23:53:19.513, 1547020399513
46, -168.57, -175.89, -137.96, -210.20, 0.000, 0.000, 0.000, 23:53:19.513, 1547020399513
47, -177.20, -177.93, -132.63, -216.08, 0.000, 0.000, 0.000, 23:53:19.514, 1547020399514
47, -177.20, -177.93, -132.63, -216.08, 0.000, 0.000, 0.000, 23:53:19.514, 1547020399514
48, -175.22, -182.62, -144.98, -218.94, 0.000, 0.000, 0.000, 23:53:19.514, 1547020399514
48, -175.22, -182.62, -144.98, -218.94, 0.000, 0.000, 0.000, 23:53:19.514, 1547020399514
49, -170.82, -179.17, -127.14, -204.89, 0.000, 0.000, 0.000, 23:53:19.529, 1547020399529
49, -170.82, -179.17, -127.14, -204.89, 0.000, 0.000, 0.000, 23:53:19.529, 1547020399529
50, -174.86, -182.76, -127.77, -208.60, 0.000, 0.000, 0.000, 23:53:19.529, 1547020399529
50, -174.86, -182.76, -127.77, -208.60, 0.000, 0.000, 0.000, 23:53:19.529, 1547020399529
51, -180.26, -187.73, -152.87, -218.04, 0.000, 0.000, 0.000, 23:53:19.544, 1547020399544
51, -180.26, -187.73, -152.87, -218.04, 0.000, 0.000, 0.000, 23:53:19.544, 1547020399544
52, -182.08, -190.93, -125.17, -200.19, 0.000, 0.000, 0.000, 23:53:19.544, 1547020399544
52, -182.08, -190.93, -125.17, -200.19, 0.000, 0.000, 0.000, 23:53:19.544, 1547020399544
53, -164.77, -174.97, -111.62, -186.54, 0.000, 0.000, 0.000, 23:53:19.544, 1547020399544
53, -164.77, -174.97, -111.62, -186.54, 0.000, 0.000, 0.000, 23:53:19.544, 1547020399544
54, -175.46, -184.76, -135.88, -198.35, 0.000, 0.000, 0.000, 23:53:19.544, 1547020399544
54, -175.46, -184.76, -135.88, -198.35, 0.000, 0.000, 0.000, 23:53:19.544, 1547020399544
55, -180.36, -186.33, -142.31, -211.95, 0.000, 0.000, 0.000, 23:53:19.558, 1547020399558
55, -180.36, -186.33, -142.31, -211.95, 0.000, 0.000, 0.000, 23:53:19.558, 1547020399558
56, -182.40, -187.72, -155.42, -217.08, 0.000, 0.000, 0.000, 23:53:19.558, 1547020399558
56, -182.40, -187.72, -155.42, -217.08, 0.000, 0.000, 0.000, 23:53:19.558, 1547020399558
57, -176.99, -183.30, -141.83, -198.47, 0.000, 0.000, 0.000, 23:53:19.573, 1547020399573
57, -176.99, -183.30, -141.83, -198.47, 0.000, 0.000, 0.000, 23:53:19.573, 1547020399573
58, -180.68, -186.83, -149.48, -211.73, 0.000, 0.000, 0.000, 23:53:19.573, 1547020399573
58, -180.68, -186.83, -149.48, -211.73, 0.000, 0.000, 0.000, 23:53:19.573, 1547020399573
59, -176.21, -185.36, -144.02, -209.09, 0.000, 0.000, 0.000, 23:53:19.574, 1547020399574
59, -176.21, -185.36, -144.02, -209.09, 0.000, 0.000, 0.000, 23:53:19.574, 1547020399574
60, -175.52, -184.63, -141.03, -214.64, 0.000, 0.000, 0.000, 23:53:19.574, 1547020399574
60, -175.52, -184.63, -141.03, -214.64, 0.000, 0.000, 0.000, 23:53:19.574, 1547020399574
61, -174.16, -185.04, -147.40, -228.10, 0.000, 0.000, 0.000, 23:53:19.588, 1547020399588
61, -174.16, -185.04, -147.40, -228.10, 0.000, 0.000, 0.000, 23:53:19.588, 1547020399588
62, -175.25, -180.48, -148.70, -216.45, 0.000, 0.000, 0.000, 23:53:19.588, 1547020399588
62, -175.25, -180.48, -148.70, -216.45, 0.000, 0.000, 0.000, 23:53:19.588, 1547020399588
63, -180.64, -188.77, -143.02, -221.24, 0.000, 0.000, 0.000, 23:53:19.603, 1547020399603
63, -180.64, -188.77, -143.02, -221.24, 0.000, 0.000, 0.000, 23:53:19.603, 1547020399603
64, -178.36, -189.35, -138.97, -220.57, 0.000, 0.000, 0.000, 23:53:19.603, 1547020399603
64, -178.36, -189.35, -138.97, -220.57, 0.000, 0.000, 0.000, 23:53:19.603, 1547020399603
65, -179.05, -183.16, -131.87, -211.82, 0.000, 0.000, 0.000, 23:53:19.604, 1547020399604
65, -179.05, -183.16, -131.87, -211.82, 0.000, 0.000, 0.000, 23:53:19.604, 1547020399604
66, -181.06, -184.40, -142.65, -211.72, 0.000, 0.000, 0.000, 23:53:19.604, 1547020399604
66, -181.06, -184.40, -142.65, -211.72, 0.000, 0.000, 0.000, 23:53:19.604, 1547020399604
67, -186.36, -193.80, -151.63, -223.82, 0.000, 0.000, 0.000, 23:53:19.618, 1547020399618
67, -186.36, -193.80, -151.63, -223.82, 0.000, 0.000, 0.000, 23:53:19.618, 1547020399618
68, -182.82, -190.83, -146.80, -224.71, 0.000, 0.000, 0.000, 23:53:19.618, 1547020399618
68, -182.82, -190.83, -146.80, -224.71, 0.000, 0.000, 0.000, 23:53:19.618, 1547020399618
69, -182.54, -193.12, -120.05, -204.72, 0.000, 0.000, 0.000, 23:53:19.633, 1547020399633
69, -182.54, -193.12, -120.05, -204.72, 0.000, 0.000, 0.000, 23:53:19.633, 1547020399633
70, -184.47, -189.66, -151.25, -224.93, 0.000, 0.000, 0.000, 23:53:19.633, 1547020399633
70, -184.47, -189.66, -151.25, -224.93, 0.000, 0.000, 0.000, 23:53:19.633, 1547020399633
71, -186.82, -195.75, -178.52, -234.88, 0.000, 0.000, 0.000, 23:53:19.641, 1547020399641
71, -186.82, -195.75, -178.52, -234.88, 0.000, 0.000, 0.000, 23:53:19.641, 1547020399641
72, -177.84, -188.85, -152.17, -222.50, 0.000, 0.000, 0.000, 23:53:19.641, 1547020399641
72, -177.84, -188.85, -152.17, -222.50, 0.000, 0.000, 0.000, 23:53:19.641, 1547020399641
73, -176.29, -187.67, -130.65, -210.36, 0.000, 0.000, 0.000, 23:53:19.648, 1547020399648
73, -176.29, -187.67, -130.65, -210.36, 0.000, 0.000, 0.000, 23:53:19.648, 1547020399648
74, -181.47, -187.44, -161.69, -226.50, 0.000, 0.000, 0.000, 23:53:19.648, 1547020399648
74, -181.47, -187.44, -161.69, -226.50, 0.000, 0.000, 0.000, 23:53:19.648, 1547020399648
75, -183.15, -189.95, -161.12, -224.66, 0.000, 0.000, 0.000, 23:53:19.663, 1547020399663
75, -183.15, -189.95, -161.12, -224.66, 0.000, 0.000, 0.000, 23:53:19.663, 1547020399663
76, -182.35, -188.11, -147.52, -223.72, 0.000, 0.000, 0.000, 23:53:19.663, 1547020399663
76, -182.35, -188.11, -147.52, -223.72, 0.000, 0.000, 0.000, 23:53:19.663, 1547020399663
77, -181.05, -186.69, -129.01, -215.14, 0.000, 0.000, 0.000, 23:53:19.664, 1547020399664
77, -181.05, -186.69, -129.01, -215.14, 0.000, 0.000, 0.000, 23:53:19.664, 1547020399664
78, -181.72, -184.98, -140.18, -220.28, 0.000, 0.000, 0.000, 23:53:19.664, 1547020399664
78, -181.72, -184.98, -140.18, -220.28, 0.000, 0.000, 0.000, 23:53:19.664, 1547020399664
79, -181.65, -186.36, -145.07, -217.80, 0.000, 0.000, 0.000, 23:53:19.678, 1547020399678
79, -181.65, -186.36, -145.07, -217.80, 0.000, 0.000, 0.000, 23:53:19.678, 1547020399678
80, -184.94, -188.45, -141.37, -216.29, 0.000, 0.000, 0.000, 23:53:19.678, 1547020399678
80, -184.94, -188.45, -141.37, -216.29, 0.000, 0.000, 0.000, 23:53:19.678, 1547020399678
81, -174.66, -184.38, -141.81, -208.76, 0.000, 0.000, 0.000, 23:53:19.693, 1547020399693
81, -174.66, -184.38, -141.81, -208.76, 0.000, 0.000, 0.000, 23:53:19.693, 1547020399693
82, -177.61, -181.55, -143.18, -216.22, 0.000, 0.000, 0.000, 23:53:19.693, 1547020399693
82, -177.61, -181.55, -143.18, -216.22, 0.000, 0.000, 0.000, 23:53:19.693, 1547020399693
83, -183.44, -184.82, -141.76, -217.13, 0.000, 0.000, 0.000, 23:53:19.694, 1547020399694
83, -183.44, -184.82, -141.76, -217.13, 0.000, 0.000, 0.000, 23:53:19.694, 1547020399694
84, -182.18, -188.37, -136.40, -210.20, 0.000, 0.000, 0.000, 23:53:19.694, 1547020399694
84, -182.18, -188.37, -136.40, -210.20, 0.000, 0.000, 0.000, 23:53:19.694, 1547020399694
85, -178.99, -183.62, -142.93, -212.93, 0.000, 0.000, 0.000, 23:53:19.709, 1547020399709
85, -178.99, -183.62, -142.93, -212.93, 0.000, 0.000, 0.000, 23:53:19.709, 1547020399709
86, -184.09, -184.38, -131.16, -211.02, 0.000, 0.000, 0.000, 23:53:19.709, 1547020399709
86, -184.09, -184.38, -131.16, -211.02, 0.000, 0.000, 0.000, 23:53:19.709, 1547020399709
87, -179.94, -178.29, -145.44, -218.23, 0.000, 0.000, 0.000, 23:53:19.723, 1547020399723
87, -179.94, -178.29, -145.44, -218.23, 0.000, 0.000, 0.000, 23:53:19.723, 1547020399723
88, -180.36, -182.85, -148.51, -216.53, 0.000, 0.000, 0.000, 23:53:19.723, 1547020399723
88, -180.36, -182.85, -148.51, -216.53, 0.000, 0.000, 0.000, 23:53:19.723, 1547020399723
89, -174.81, -178.58, -130.08, -212.20, 0.000, 0.000, 0.000, 23:53:19.724, 1547020399724
89, -174.81, -178.58, -130.08, -212.20, 0.000, 0.000, 0.000, 23:53:19.724, 1547020399724
90, -174.87, -178.17, -142.04, -213.85, 0.000, 0.000, 0.000, 23:53:19.724, 1547020399724
90, -174.87, -178.17, -142.04, -213.85, 0.000, 0.000, 0.000, 23:53:19.724, 1547020399724
91, -171.99, -176.42, -129.31, -212.68, 0.000, 0.000, 0.000, 23:53:19.738, 1547020399738
91, -171.99, -176.42, -129.31, -212.68, 0.000, 0.000, 0.000, 23:53:19.738, 1547020399738
92, -174.17, -177.11, -142.47, -212.02, 0.000, 0.000, 0.000, 23:53:19.738, 1547020399738
92, -174.17, -177.11, -142.47, -212.02, 0.000, 0.000, 0.000, 23:53:19.738, 1547020399738
93, -174.98, -180.11, -164.46, -236.44, 0.000, 0.000, 0.000, 23:53:19.753, 1547020399753
93, -174.98, -180.11, -164.46, -236.44, 0.000, 0.000, 0.000, 23:53:19.753, 1547020399753
94, -176.06, -179.22, -156.21, -226.40, 0.000, 0.000, 0.000, 23:53:19.753, 1547020399753
94, -176.06, -179.22, -156.21, -226.40, 0.000, 0.000, 0.000, 23:53:19.753, 1547020399753
95, -179.68, -181.04, -158.58, -222.04, 0.000, 0.000, 0.000, 23:53:19.754, 1547020399754
95, -179.68, -181.04, -158.58, -222.04, 0.000, 0.000, 0.000, 23:53:19.754, 1547020399754
96, -171.84, -176.32, -145.44, -217.37, 0.000, 0.000, 0.000, 23:53:19.754, 1547020399754
96, -171.84, -176.32, -145.44, -217.37, 0.000, 0.000, 0.000, 23:53:19.754, 1547020399754
97, -178.17, -181.09, -159.45, -211.63, 0.000, 0.000, 0.000, 23:53:19.768, 1547020399768
97, -178.17, -181.09, -159.45, -211.63, 0.000, 0.000, 0.000, 23:53:19.768, 1547020399768
98, -181.60, -183.00, -149.29, -211.27, 0.000, 0.000, 0.000, 23:53:19.768, 1547020399768
98, -181.60, -183.00, -149.29, -211.27, 0.000, 0.000, 0.000, 23:53:19.768, 1547020399768
99, -181.29, -183.97, -143.20, -223.71, 0.000, 0.000, 0.000, 23:53:19.784, 1547020399784
99, -181.29, -183.97, -143.20, -223.71, 0.000, 0.000, 0.000, 23:53:19.784, 1547020399784
100, -178.08, -182.40, -133.88, -215.33, 0.000, 0.000, 0.000, 23:53:19.784, 1547020399784
100, -178.08, -182.40, -133.88, -215.33, 0.000, 0.000, 0.000, 23:53:19.784, 1547020399784
101, -178.54, -183.81, -138.06, -218.52, 0.000, 0.000, 0.000, 23:53:19.784, 1547020399784
101, -178.54, -183.81, -138.06, -218.52, 0.000, 0.000, 0.000, 23:53:19.784, 1547020399784
102, -185.46, -185.19, -139.22, -220.57, 0.000, 0.000, 0.000, 23:53:19.784, 1547020399784
102, -185.46, -185.19, -139.22, -220.57, 0.000, 0.000, 0.000, 23:53:19.784, 1547020399784
103, -176.43, -177.79, -129.69, -207.35, 0.000, 0.000, 0.000, 23:53:19.798, 1547020399798
103, -176.43, -177.79, -129.69, -207.35, 0.000, 0.000, 0.000, 23:53:19.798, 1547020399798
104, -176.87, -180.98, -127.37, -212.98, 0.000, 0.000, 0.000, 23:53:19.798, 1547020399798
104, -176.87, -180.98, -127.37, -212.98, 0.000, 0.000, 0.000, 23:53:19.798, 1547020399798
105, -175.94, -186.27, -136.15, -217.21, 0.000, 0.000, 0.000, 23:53:19.814, 1547020399814
105, -175.94, -186.27, -136.15, -217.21, 0.000, 0.000, 0.000, 23:53:19.814, 1547020399814
106, -169.63, -169.32, -126.12, -210.30, 0.000, 0.000, 0.000, 23:53:19.814, 1547020399814
106, -169.63, -169.32, -126.12, -210.30, 0.000, 0.000, 0.000, 23:53:19.814, 1547020399814
107, -174.39, -175.62, -139.64, -220.26, 0.000, 0.000, 0.000, 23:53:19.816, 1547020399816
107, -174.39, -175.62, -139.64, -220.26, 0.000, 0.000, 0.000, 23:53:19.816, 1547020399816
108, -174.78, -177.43, -140.36, -213.31, 0.000, 0.000, 0.000, 23:53:19.816, 1547020399816
108, -174.78, -177.43, -140.36, -213.31, 0.000, 0.000, 0.000, 23:53:19.816, 1547020399816
109, -169.49, -179.65, -137.79, -206.20, 0.000, 0.000, 0.000, 23:53:19.828, 1547020399828
109, -169.49, -179.65, -137.79, -206.20, 0.000, 0.000, 0.000, 23:53:19.828, 1547020399828
110, -174.96, -179.13, -147.05, -220.80, 0.000, 0.000, 0.000, 23:53:19.828, 1547020399828
110, -174.96, -179.13, -147.05, -220.80, 0.000, 0.000, 0.000, 23:53:19.828, 1547020399828
111, -176.64, -180.32, -151.30, -222.69, 0.000, 0.000, 0.000, 23:53:19.844, 1547020399844
111, -176.64, -180.32, -151.30, -222.69, 0.000, 0.000, 0.000, 23:53:19.844, 1547020399844
112, -173.08, -180.53, -128.97, -203.70, 0.000, 0.000, 0.000, 23:53:19.844, 1547020399844
112, -173.08, -180.53, -128.97, -203.70, 0.000, 0.000, 0.000, 23:53:19.844, 1547020399844
113, -171.14, -173.57, -141.41, -211.13, 0.000, 0.000, 0.000, 23:53:19.844, 1547020399844
113, -171.14, -173.57, -141.41, -211.13, 0.000, 0.000, 0.000, 23:53:19.844, 1547020399844
114, -178.30, -177.88, -163.52, -217.49, 0.000, 0.000, 0.000, 23:53:19.844, 1547020399844
114, -178.30, -177.88, -163.52, -217.49, 0.000, 0.000, 0.000, 23:53:19.844, 1547020399844
115, -184.04, -178.20, -160.70, -219.56, 0.000, 0.000, 0.000, 23:53:19.858, 1547020399858
115, -184.04, -178.20, -160.70, -219.56, 0.000, 0.000, 0.000, 23:53:19.858, 1547020399858
116, -179.86, -179.98, -135.05, -210.37, 0.000, 0.000, 0.000, 23:53:19.858, 1547020399858
116, -179.86, -179.98, -135.05, -210.37, 0.000, 0.000, 0.000, 23:53:19.858, 1547020399858
117, -179.38, -176.89, -139.35, -215.73, 0.000, 0.000, 0.000, 23:53:19.874, 1547020399874
117, -179.38, -176.89, -139.35, -215.73, 0.000, 0.000, 0.000, 23:53:19.874, 1547020399874
118, -185.76, -185.06, -174.83, -228.68, 0.000, 0.000, 0.000, 23:53:19.874, 1547020399874
118, -185.76, -185.06, -174.83, -228.68, 0.000, 0.000, 0.000, 23:53:19.874, 1547020399874
119, -180.73, -185.90, -155.93, -222.86, 0.000, 0.000, 0.000, 23:53:19.874, 1547020399874
119, -180.73, -185.90, -155.93, -222.86, 0.000, 0.000, 0.000, 23:53:19.874, 1547020399874
120, -180.08, -185.36, -142.39, -218.73, 0.000, 0.000, 0.000, 23:53:19.874, 1547020399874
120, -180.08, -185.36, -142.39, -218.73, 0.000, 0.000, 0.000, 23:53:19.874, 1547020399874
121, -175.40, -180.06, -132.15, -210.60, 0.000, 0.000, 0.000, 23:53:19.888, 1547020399888
121, -175.40, -180.06, -132.15, -210.60, 0.000, 0.000, 0.000, 23:53:19.888, 1547020399888
122, -176.05, -182.18, -142.43, -218.79, 0.000, 0.000, 0.000, 23:53:19.888, 1547020399888
122, -176.05, -182.18, -142.43, -218.79, 0.000, 0.000, 0.000, 23:53:19.888, 1547020399888
123, -181.83, -181.44, -165.82, -232.22, 0.000, 0.000, 0.000, 23:53:19.903, 1547020399903
123, -181.83, -181.44, -165.82, -232.22, 0.000, 0.000, 0.000, 23:53:19.903, 1547020399903
124, -183.52, -178.73, -162.32, -221.08, 0.000, 0.000, 0.000, 23:53:19.903, 1547020399903
124, -183.52, -178.73, -162.32, -221.08, 0.000, 0.000, 0.000, 23:53:19.903, 1547020399903
125, -170.77, -171.90, -139.43, -215.68, 0.000, 0.000, 0.000, 23:53:19.904, 1547020399904
125, -170.77, -171.90, -139.43, -215.68, 0.000, 0.000, 0.000, 23:53:19.904, 1547020399904
126, -172.92, -171.53, -133.63, -216.89, 0.000, 0.000, 0.000, 23:53:19.904, 1547020399904
126, -172.92, -171.53, -133.63, -216.89, 0.000, 0.000, 0.000, 23:53:19.904, 1547020399904
127, -179.60, -182.23, -148.60, -224.28, 0.000, 0.000, 0.000, 23:53:19.919, 1547020399919
127, -179.60, -182.23, -148.60, -224.28, 0.000, 0.000, 0.000, 23:53:19.919, 1547020399919
128, -181.48, -182.59, -133.76, -219.98, 0.000, 0.000, 0.000, 23:53:19.919, 1547020399919
128, -181.48, -182.59, -133.76, -219.98, 0.000, 0.000, 0.000, 23:53:19.919, 1547020399919
129, -175.17, -177.62, -151.16, -221.98, 0.000, 0.000, 0.000, 23:53:19.933, 1547020399933
129, -175.17, -177.62, -151.16, -221.98, 0.000, 0.000, 0.000, 23:53:19.933, 1547020399933
130, -180.83, -182.73, -173.61, -228.06, 0.000, 0.000, 0.000, 23:53:19.934, 1547020399934
130, -180.83, -182.73, -173.61, -228.06, 0.000, 0.000, 0.000, 23:53:19.934, 1547020399934
131, -183.57, -182.34, -156.24, -224.68, 0.000, 0.000, 0.000, 23:53:19.935, 1547020399935
131, -183.57, -182.34, -156.24, -224.68, 0.000, 0.000, 0.000, 23:53:19.935, 1547020399935
132, -170.47, -175.65, -141.84, -215.33, 0.000, 0.000, 0.000, 23:53:19.935, 1547020399935
132, -170.47, -175.65, -141.84, -215.33, 0.000, 0.000, 0.000, 23:53:19.935, 1547020399935
133, -179.11, -177.25, -141.26, -225.39, 0.000, 0.000, 0.000, 23:53:19.949, 1547020399949
133, -179.11, -177.25, -141.26, -225.39, 0.000, 0.000, 0.000, 23:53:19.949, 1547020399949
134, -172.71, -174.53, -131.69, -216.16, 0.000, 0.000, 0.000, 23:53:19.949, 1547020399949
134, -172.71, -174.53, -131.69, -216.16, 0.000, 0.000, 0.000, 23:53:19.949, 1547020399949
135, -178.51, -177.58, -147.55, -219.22, 0.000, 0.000, 0.000, 23:53:19.964, 1547020399964
135, -178.51, -177.58, -147.55, -219.22, 0.000, 0.000, 0.000, 23:53:19.964, 1547020399964
136, -180.33, -181.26, -144.03, -218.00, 0.000, 0.000, 0.000, 23:53:19.964, 1547020399964
136, -180.33, -181.26, -144.03, -218.00, 0.000, 0.000, 0.000, 23:53:19.964, 1547020399964
137, -175.11, -178.13, -134.33, -213.16, 0.000, 0.000, 0.000, 23:53:19.965, 1547020399965
137, -175.11, -178.13, -134.33, -213.16, 0.000, 0.000, 0.000, 23:53:19.965, 1547020399965
138, -178.34, -181.88, -151.49, -215.64, 0.000, 0.000, 0.000, 23:53:19.965, 1547020399965
138, -178.34, -181.88, -151.49, -215.64, 0.000, 0.000, 0.000, 23:53:19.965, 1547020399965
139, -186.64, -185.89, -162.06, -221.70, 0.000, 0.000, 0.000, 23:53:19.978, 1547020399978
139, -186.64, -185.89, -162.06, -221.70, 0.000, 0.000, 0.000, 23:53:19.978, 1547020399978
140, -176.89, -178.91, -150.63, -217.83, 0.000, 0.000, 0.000, 23:53:19.978, 1547020399978
140, -176.89, -178.91, -150.63, -217.83, 0.000, 0.000, 0.000, 23:53:19.978, 1547020399978
141, -177.12, -178.48, -140.74, -217.86, 0.000, 0.000, 0.000, 23:53:19.993, 1547020399993
141, -177.12, -178.48, -140.74, -217.86, 0.000, 0.000, 0.000, 23:53:19.993, 1547020399993
142, -177.77, -180.24, -143.94, -218.80, 0.000, 0.000, 0.000, 23:53:19.993, 1547020399993
142, -177.77, -180.24, -143.94, -218.80, 0.000, 0.000, 0.000, 23:53:19.993, 1547020399993
143, -187.01, -184.46, -151.71, -221.50, 0.000, 0.000, 0.000, 23:53:19.994, 1547020399994
143, -187.01, -184.46, -151.71, -221.50, 0.000, 0.000, 0.000, 23:53:19.994, 1547020399994
144, -178.68, -181.19, -141.57, -214.53, 0.000, 0.000, 0.000, 23:53:19.994, 1547020399994
144, -178.68, -181.19, -141.57, -214.53, 0.000, 0.000, 0.000, 23:53:19.994, 1547020399994
145, -170.32, -179.31, -133.09, -205.83, 0.000, 0.000, 0.000, 23:53:20.009, 1547020400009
145, -170.32, -179.31, -133.09, -205.83, 0.000, 0.000, 0.000, 23:53:20.009, 1547020400009
146, -178.22, -180.29, -138.38, -218.50, 0.000, 0.000, 0.000, 23:53:20.009, 1547020400009
146, -178.22, -180.29, -138.38, -218.50, 0.000, 0.000, 0.000, 23:53:20.009, 1547020400009
147, -180.14, -179.62, -135.11, -206.30, 0.000, 0.000, 0.000, 23:53:20.023, 1547020400023
147, -180.14, -179.62, -135.11, -206.30, 0.000, 0.000, 0.000, 23:53:20.023, 1547020400023
148, -180.94, -184.10, -136.53, -215.28, 0.000, 0.000, 0.000, 23:53:20.023, 1547020400023
148, -180.94, -184.10, -136.53, -215.28, 0.000, 0.000, 0.000, 23:53:20.023, 1547020400023
149, -179.23, -184.70, -140.36, -221.67, 0.000, 0.000, 0.000, 23:53:20.024, 1547020400024
149, -179.23, -184.70, -140.36, -221.67, 0.000, 0.000, 0.000, 23:53:20.024, 1547020400024
150, -184.08, -184.85, -144.53, -224.99, 0.000, 0.000, 0.000, 23:53:20.024, 1547020400024
150, -184.08, -184.85, -144.53, -224.99, 0.000, 0.000, 0.000, 23:53:20.024, 1547020400024
151, -180.29, -177.91, -160.42, -219.97, 0.000, 0.000, 0.000, 23:53:20.039, 1547020400039
151, -180.29, -177.91, -160.42, -219.97, 0.000, 0.000, 0.000, 23:53:20.039, 1547020400039
152, -179.49, -180.10, -149.96, -222.45, 0.000, 0.000, 0.000, 23:53:20.039, 1547020400039
152, -179.49, -180.10, -149.96, -222.45, 0.000, 0.000, 0.000, 23:53:20.039, 1547020400039
153, -176.92, -179.49, -127.70, -215.22, 0.000, 0.000, 0.000, 23:53:20.053, 1547020400053
153, -176.92, -179.49, -127.70, -215.22, 0.000, 0.000, 0.000, 23:53:20.053, 1547020400053
154, -186.16, -183.93, -162.46, -226.29, 0.000, 0.000, 0.000, 23:53:20.053, 1547020400053
154, -186.16, -183.93, -162.46, -226.29, 0.000, 0.000, 0.000, 23:53:20.053, 1547020400053
155, -182.19, -183.20, -160.69, -230.87, 0.000, 0.000, 0.000, 23:53:20.054, 1547020400054
155, -182.19, -183.20, -160.69, -230.87, 0.000, 0.000, 0.000, 23:53:20.054, 1547020400054
156, -187.36, -185.07, -163.74, -226.65, 0.000, 0.000, 0.000, 23:53:20.054, 1547020400054
156, -187.36, -185.07, -163.74, -226.65, 0.000, 0.000, 0.000, 23:53:20.054, 1547020400054
157, -187.94, -185.55, -154.99, -225.11, 0.000, 0.000, 0.000, 23:53:20.068, 1547020400068
157, -187.94, -185.55, -154.99, -225.11, 0.000, 0.000, 0.000, 23:53:20.068, 1547020400068
158, -187.72, -183.49, -145.81, -225.21, 0.000, 0.000, 0.000, 23:53:20.068, 1547020400068
158, -187.72, -183.49, -145.81, -225.21, 0.000, 0.000, 0.000, 23:53:20.068, 1547020400068
159, -183.85, -184.29, -157.49, -227.56, 0.000, 0.000, 0.000, 23:53:20.084, 1547020400084
159, -183.85, -184.29, -157.49, -227.56, 0.000, 0.000, 0.000, 23:53:20.084, 1547020400084
160, -174.06, -179.62, -139.69, -206.80, 0.000, 0.000, 0.000, 23:53:20.084, 1547020400084
160, -174.06, -179.62, -139.69, -206.80, 0.000, 0.000, 0.000, 23:53:20.084, 1547020400084
161, -174.13, -178.84, -134.42, -222.51, 0.000, 0.000, 0.000, 23:53:20.086, 1547020400086
161, -174.13, -178.84, -134.42, -222.51, 0.000, 0.000, 0.000, 23:53:20.086, 1547020400086
162, -176.00, -180.69, -137.82, -219.48, 0.000, 0.000, 0.000, 23:53:20.086, 1547020400086
162, -176.00, -180.69, -137.82, -219.48, 0.000, 0.000, 0.000, 23:53:20.086, 1547020400086
163, -186.45, -188.47, -156.56, -226.76, 0.000, 0.000, 0.000, 23:53:20.098, 1547020400098
163, -186.45, -188.47, -156.56, -226.76, 0.000, 0.000, 0.000, 23:53:20.098, 1547020400098
164, -175.22, -179.45, -136.25, -208.10, 0.000, 0.000, 0.000, 23:53:20.098, 1547020400098
164, -175.22, -179.45, -136.25, -208.10, 0.000, 0.000, 0.000, 23:53:20.098, 1547020400098
165, -174.85, -181.77, -136.57, -208.01, 0.000, 0.000, 0.000, 23:53:20.114, 1547020400114
165, -174.85, -181.77, -136.57, -208.01, 0.000, 0.000, 0.000, 23:53:20.114, 1547020400114
166, -170.13, -177.03, -131.42, -210.90, 0.000, 0.000, 0.000, 23:53:20.114, 1547020400114
166, -170.13, -177.03, -131.42, -210.90, 0.000, 0.000, 0.000, 23:53:20.114, 1547020400114
167, -174.98, -178.11, -136.35, -211.96, 0.000, 0.000, 0.000, 23:53:20.114, 1547020400114
167, -174.98, -178.11, -136.35, -211.96, 0.000, 0.000, 0.000, 23:53:20.114, 1547020400114
168, -169.90, -177.14, -130.62, -218.79, 0.000, 0.000, 0.000, 23:53:20.114, 1547020400114
168, -169.90, -177.14, -130.62, -218.79, 0.000, 0.000, 0.000, 23:53:20.114, 1547020400114
169, -172.22, -179.15, -147.22, -220.04, 0.000, 0.000, 0.000, 23:53:20.135, 1547020400135
169, -172.22, -179.15, -147.22, -220.04, 0.000, 0.000, 0.000, 23:53:20.135, 1547020400135
170, -170.12, -176.64, -144.79, -211.81, 0.000, 0.000, 0.000, 23:53:20.135, 1547020400135
170, -170.12, -176.64, -144.79, -211.81, 0.000, 0.000, 0.000, 23:53:20.135, 1547020400135
171, -176.32, -180.41, -141.38, -216.69, 0.000, 0.000, 0.000, 23:53:20.143, 1547020400143
171, -176.32, -180.41, -141.38, -216.69, 0.000, 0.000, 0.000, 23:53:20.143, 1547020400143
172, -178.28, -178.01, -138.51, -222.97, 0.000, 0.000, 0.000, 23:53:20.143, 1547020400143
172, -178.28, -178.01, -138.51, -222.97, 0.000, 0.000, 0.000, 23:53:20.143, 1547020400143
173, -175.45, -177.20, -144.05, -229.20, 0.000, 0.000, 0.000, 23:53:20.144, 1547020400144
173, -175.45, -177.20, -144.05, -229.20, 0.000, 0.000, 0.000, 23:53:20.144, 1547020400144
174, -184.53, -182.96, -157.01, -227.97, 0.000, 0.000, 0.000, 23:53:20.144, 1547020400144
174, -184.53, -182.96, -157.01, -227.97, 0.000, 0.000, 0.000, 23:53:20.144, 1547020400144
175, -179.52, -177.28, -141.22, -223.77, 0.000, 0.000, 0.000, 23:53:20.158, 1547020400158
175, -179.52, -177.28, -141.22, -223.77, 0.000, 0.000, 0.000, 23:53:20.158, 1547020400158
176, -179.43, -180.13, -137.08, -222.25, 0.000, 0.000, 0.000, 23:53:20.158, 1547020400158
176, -179.43, -180.13, -137.08, -222.25, 0.000, 0.000, 0.000, 23:53:20.158, 1547020400158
177, -181.95, -187.77, -156.60, -228.31, 0.000, 0.000, 0.000, 23:53:20.174, 1547020400174
177, -181.95, -187.77, -156.60, -228.31, 0.000, 0.000, 0.000, 23:53:20.174, 1547020400174
178, -182.90, -183.41, -162.85, -237.22, 0.000, 0.000, 0.000, 23:53:20.174, 1547020400174
178, -182.90, -183.41, -162.85, -237.22, 0.000, 0.000, 0.000, 23:53:20.174, 1547020400174
179, -184.81, -184.34, -157.57, -229.87, 0.000, 0.000, 0.000, 23:53:20.178, 1547020400178
179, -184.81, -184.34, -157.57, -229.87, 0.000, 0.000, 0.000, 23:53:20.178, 1547020400178
180, -180.32, -182.05, -148.07, -226.87, 0.000, 0.000, 0.000, 23:53:20.178, 1547020400178
180, -180.32, -182.05, -148.07, -226.87, 0.000, 0.000, 0.000, 23:53:20.178, 1547020400178
181, -177.05, -180.52, -137.35, -217.20, 0.000, 0.000, 0.000, 23:53:20.188, 1547020400188
181, -177.05, -180.52, -137.35, -217.20, 0.000, 0.000, 0.000, 23:53:20.188, 1547020400188
182, -175.38, -176.70, -145.09, -219.65, 0.000, 0.000, 0.000, 23:53:20.188, 1547020400188
182, -175.38, -176.70, -145.09, -219.65, 0.000, 0.000, 0.000, 23:53:20.188, 1547020400188
183, -181.62, -185.25, -145.74, -218.38, 0.000, 0.000, 0.000, 23:53:20.204, 1547020400204
183, -181.62, -185.25, -145.74, -218.38, 0.000, 0.000, 0.000, 23:53:20.204, 1547020400204
184, -180.21, -185.00, -149.87, -228.35, 0.000, 0.000, 0.000, 23:53:20.204, 1547020400204
184, -180.21, -185.00, -149.87, -228.35, 0.000, 0.000, 0.000, 23:53:20.204, 1547020400204
185, -174.34, -180.47, -141.32, -223.43, 0.000, 0.000, 0.000, 23:53:20.205, 1547020400205
185, -174.34, -180.47, -141.32, -223.43, 0.000, 0.000, 0.000, 23:53:20.205, 1547020400205
186, -181.87, -185.01, -159.10, -233.78, 0.000, 0.000, 0.000, 23:53:20.205, 1547020400205
186, -181.87, -185.01, -159.10, -233.78, 0.000, 0.000, 0.000, 23:53:20.205, 1547020400205
187, -185.01, -192.19, -148.32, -229.02, 0.000, 0.000, 0.000, 23:53:20.219, 1547020400219
187, -185.01, -192.19, -148.32, -229.02, 0.000, 0.000, 0.000, 23:53:20.219, 1547020400219
188, -183.19, -189.98, -150.53, -230.73, 0.000, 0.000, 0.000, 23:53:20.219, 1547020400219
188, -183.19, -189.98, -150.53, -230.73, 0.000, 0.000, 0.000, 23:53:20.219, 1547020400219
189, -187.62, -198.25, -138.84, -227.54, 0.000, 0.000, 0.000, 23:53:20.233, 1547020400233
189, -187.62, -198.25, -138.84, -227.54, 0.000, 0.000, 0.000, 23:53:20.233, 1547020400233
190, -186.42, -189.67, -152.79, -228.16, 0.000, 0.000, 0.000, 23:53:20.233, 1547020400233
190, -186.42, -189.67, -152.79, -228.16, 0.000, 0.000, 0.000, 23:53:20.233, 1547020400233
191, -190.05, -193.46, -167.15, -227.23, 0.000, 0.000, 0.000, 23:53:20.237, 1547020400237
191, -190.05, -193.46, -167.15, -227.23, 0.000, 0.000, 0.000, 23:53:20.237, 1547020400237
192, -188.48, -193.62, -156.03, -219.59, 0.000, 0.000, 0.000, 23:53:20.237, 1547020400237
192, -188.48, -193.62, -156.03, -219.59, 0.000, 0.000, 0.000, 23:53:20.237, 1547020400237
193, -184.84, -192.28, -154.23, -220.30, 0.000, 0.000, 0.000, 23:53:20.249, 1547020400249
193, -184.84, -192.28, -154.23, -220.30, 0.000, 0.000, 0.000, 23:53:20.249, 1547020400249
194, -185.54, -196.51, -150.55, -218.35, 0.000, 0.000, 0.000, 23:53:20.249, 1547020400249
194, -185.54, -196.51, -150.55, -218.35, 0.000, 0.000, 0.000, 23:53:20.249, 1547020400249
195, -184.37, -187.36, -138.46, -212.37, 0.000, 0.000, 0.000, 23:53:20.263, 1547020400263
195, -184.37, -187.36, -138.46, -212.37, 0.000, 0.000, 0.000, 23:53:20.263, 1547020400263
196, -182.62, -190.80, -139.17, -223.79, 0.000, 0.000, 0.000, 23:53:20.263, 1547020400263
196, -182.62, -190.80, -139.17, -223.79, 0.000, 0.000, 0.000, 23:53:20.263, 1547020400263
197, -187.05, -194.42, -170.64, -240.70, 0.000, 0.000, 0.000, 23:53:20.264, 1547020400264
197, -187.05, -194.42, -170.64, -240.70, 0.000, 0.000, 0.000, 23:53:20.264, 1547020400264
198, -175.79, -182.32, -148.45, -222.93, 0.000, 0.000, 0.000, 23:53:20.264, 1547020400264
198, -175.79, -182.32, -148.45, -222.93, 0.000, 0.000, 0.000, 23:53:20.264, 1547020400264
199, -186.51, -188.11, -156.33, -228.70, 0.000, 0.000, 0.000, 23:53:20.278, 1547020400278
199, -186.51, -188.11, -156.33, -228.70, 0.000, 0.000, 0.000, 23:53:20.278, 1547020400278
200, -185.67, -188.53, -143.76, -235.00, 0.000, 0.000, 0.000, 23:53:20.278, 1547020400278
200, -185.67, -188.53, -143.76, -235.00, 0.000, 0.000, 0.000, 23:53:20.278, 1547020400278
0, -184.54, -195.17, -147.97, -234.01, 0.000, 0.000, 0.000, 23:53:20.279, 1547020400279
0, -184.54, -195.17, -147.97, -234.01, 0.000, 0.000, 0.000, 23:53:20.279, 1547020400279
1, -185.52, -191.47, -146.13, -230.96, 0.000, 0.000, 0.000, 23:53:20.293, 1547020400293
1, -185.52, -191.47, -146.13, -230.96, 0.000, 0.000, 0.000, 23:53:20.293, 1547020400293
2, -182.99, -186.90, -141.02, -218.25, 0.000, 0.000, 0.000, 23:53:20.293, 1547020400293
2, -182.99, -186.90, -141.02, -218.25, 0.000, 0.000, 0.000, 23:53:20.293, 1547020400293
3, -185.39, -191.73, -136.43, -212.74, 0.000, 0.000, 0.000, 23:53:20.310, 1547020400310
3, -185.39, -191.73, -136.43, -212.74, 0.000, 0.000, 0.000, 23:53:20.310, 1547020400310
4, -178.51, -191.11, -135.83, -220.24, 0.000, 0.000, 0.000, 23:53:20.310, 1547020400310
4, -178.51, -191.11, -135.83, -220.24, 0.000, 0.000, 0.000, 23:53:20.310, 1547020400310
5, -182.71, -192.60, -141.66, -212.66, 0.000, 0.000, 0.000, 23:53:20.310, 1547020400310
5, -182.71, -192.60, -141.66, -212.66, 0.000, 0.000, 0.000, 23:53:20.310, 1547020400310
6, -185.43, -189.52, -145.11, -209.03, 0.000, 0.000, 0.000, 23:53:20.310, 1547020400310
6, -185.43, -189.52, -145.11, -209.03, 0.000, 0.000, 0.000, 23:53:20.310, 1547020400310
7, -181.66, -195.10, -143.81, -218.24, 0.000, 0.000, 0.000, 23:53:20.323, 1547020400323
7, -181.66, -195.10, -143.81, -218.24, 0.000, 0.000, 0.000, 23:53:20.323, 1547020400323
8, -176.80, -184.60, -141.48, -212.96, 0.000, 0.000, 0.000, 23:53:20.323, 1547020400323
8, -176.80, -184.60, -141.48, -212.96, 0.000, 0.000, 0.000, 23:53:20.323, 1547020400323
9, -180.31, -187.92, -145.08, -216.04, 0.000, 0.000, 0.000, 23:53:20.339, 1547020400339
9, -180.31, -187.92, -145.08, -216.04, 0.000, 0.000, 0.000, 23:53:20.339, 1547020400339
10, -190.59, -195.05, -149.85, -222.72, 0.000, 0.000, 0.000, 23:53:20.339, 1547020400339
10, -190.59, -195.05, -149.85, -222.72, 0.000, 0.000, 0.000, 23:53:20.339, 1547020400339
11, -175.27, -182.38, -120.54, -202.16, 0.000, 0.000, 0.000, 23:53:20.340, 1547020400340
11, -175.27, -182.38, -120.54, -202.16, 0.000, 0.000, 0.000, 23:53:20.340, 1547020400340
12, -179.73, -186.17, -141.42, -215.37, 0.000, 0.000, 0.000, 23:53:20.340, 1547020400340
12, -179.73, -186.17, -141.42, -215.37, 0.000, 0.000, 0.000, 23:53:20.340, 1547020400340
13, -179.96, -190.43, -160.35, -220.86, 0.000, 0.000, 0.000, 23:53:20.353, 1547020400353
13, -179.96, -190.43, -160.35, -220.86, 0.000, 0.000, 0.000, 23:53:20.353, 1547020400353
14, -184.00, -189.17, -142.70, -218.14, 0.000, 0.000, 0.000, 23:53:20.353, 1547020400353
14, -184.00, -189.17, -142.70, -218.14, 0.000, 0.000, 0.000, 23:53:20.353, 1547020400353
15, -179.64, -188.79, -144.68, -218.84, 0.000, 0.000, 0.000, 23:53:20.369, 1547020400369
15, -179.64, -188.79, -144.68, -218.84, 0.000, 0.000, 0.000, 23:53:20.369, 1547020400369
16, -176.86, -185.13, -139.44, -221.90, 0.000, 0.000, 0.000, 23:53:20.369, 1547020400369
16, -176.86, -185.13, -139.44, -221.90, 0.000, 0.000, 0.000, 23:53:20.369, 1547020400369
17, -182.42, -183.26, -146.91, -216.74, 0.000, 0.000, 0.000, 23:53:20.369, 1547020400369
17, -182.42, -183.26, -146.91, -216.74, 0.000, 0.000, 0.000, 23:53:20.369, 1547020400369
18, -183.86, -187.92, -145.21, -220.24, 0.000, 0.000, 0.000, 23:53:20.369, 1547020400369
18, -183.86, -187.92, -145.21, -220.24, 0.000, 0.000, 0.000, 23:53:20.369, 1547020400369
19, -191.18, -191.94, -153.45, -224.24, 0.000, 0.000, 0.000, 23:53:20.385, 1547020400385
19, -191.18, -191.94, -153.45, -224.24, 0.000, 0.000, 0.000, 23:53:20.385, 1547020400385
20, -180.64, -186.64, -130.87, -212.87, 0.000, 0.000, 0.000, 23:53:20.385, 1547020400385
20, -180.64, -186.64, -130.87, -212.87, 0.000, 0.000, 0.000, 23:53:20.385, 1547020400385
21, -181.44, -183.38, -124.28, -204.64, 0.000, 0.000, 0.000, 23:53:20.398, 1547020400398
21, -181.44, -183.38, -124.28, -204.64, 0.000, 0.000, 0.000, 23:53:20.398, 1547020400398
22, -185.77, -187.10, -161.66, -226.35, 0.000, 0.000, 0.000, 23:53:20.398, 1547020400398
22, -185.77, -187.10, -161.66, -226.35, 0.000, 0.000, 0.000, 23:53:20.398, 1547020400398
23, -182.76, -193.39, -162.65, -221.18, 0.000, 0.000, 0.000, 23:53:20.399, 1547020400399
23, -182.76, -193.39, -162.65, -221.18, 0.000, 0.000, 0.000, 23:53:20.399, 1547020400399
24, -178.57, -185.44, -147.63, -210.41, 0.000, 0.000, 0.000, 23:53:20.399, 1547020400399
24, -178.57, -185.44, -147.63, -210.41, 0.000, 0.000, 0.000, 23:53:20.399, 1547020400399
25, -183.16, -185.45, -155.08, -217.88, 0.000, 0.000, 0.000, 23:53:20.413, 1547020400413
25, -183.16, -185.45, -155.08, -217.88, 0.000, 0.000, 0.000, 23:53:20.413, 1547020400413
26, -186.99, -188.04, -148.03, -217.75, 0.000, 0.000, 0.000, 23:53:20.413, 1547020400413
26, -186.99, -188.04, -148.03, -217.75, 0.000, 0.000, 0.000, 23:53:20.413, 1547020400413
27, -181.34, -188.72, -143.20, -220.99, 0.000, 0.000, 0.000, 23:53:20.428, 1547020400428
27, -181.34, -188.72, -143.20, -220.99, 0.000, 0.000, 0.000, 23:53:20.428, 1547020400428
28, -178.79, -185.11, -144.17, -225.70, 0.000, 0.000, 0.000, 23:53:20.428, 1547020400428
28, -178.79, -185.11, -144.17, -225.70, 0.000, 0.000, 0.000, 23:53:20.428, 1547020400428
29, -187.48, -189.14, -151.67, -221.13, 0.000, 0.000, 0.000, 23:53:20.429, 1547020400429
29, -187.48, -189.14, -151.67, -221.13, 0.000, 0.000, 0.000, 23:53:20.429, 1547020400429
30, -178.08, -180.77, -142.13, -219.54, 0.000, 0.000, 0.000, 23:53:20.429, 1547020400429
30, -178.08, -180.77, -142.13, -219.54, 0.000, 0.000, 0.000, 23:53:20.429, 1547020400429
31, -183.45, -185.57, -134.11, -212.64, 0.000, 0.000, 0.000, 23:53:20.443, 1547020400443
31, -183.45, -185.57, -134.11, -212.64, 0.000, 0.000, 0.000, 23:53:20.443, 1547020400443
32, -188.61, -189.48, -142.93, -225.87, 0.000, 0.000, 0.000, 23:53:20.443, 1547020400443
32, -188.61, -189.48, -142.93, -225.87, 0.000, 0.000, 0.000, 23:53:20.443, 1547020400443
33, -189.61, -193.32, -154.59, -232.18, 0.000, 0.000, 0.000, 23:53:20.458, 1547020400458
33, -189.61, -193.32, -154.59, -232.18, 0.000, 0.000, 0.000, 23:53:20.458, 1547020400458
34, -194.79, -192.55, -152.97, -225.46, 0.000, 0.000, 0.000, 23:53:20.458, 1547020400458
34, -194.79, -192.55, -152.97, -225.46, 0.000, 0.000, 0.000, 23:53:20.458, 1547020400458
35, -191.31, -188.24, -136.14, -221.10, 0.000, 0.000, 0.000, 23:53:20.459, 1547020400459
35, -191.31, -188.24, -136.14, -221.10, 0.000, 0.000, 0.000, 23:53:20.459, 1547020400459
36, -192.56, -188.83, -146.93, -225.23, 0.000, 0.000, 0.000, 23:53:20.459, 1547020400459
36, -192.56, -188.83, -146.93, -225.23, 0.000, 0.000, 0.000, 23:53:20.459, 1547020400459
37, -194.40, -198.07, -152.32, -224.03, 0.000, 0.000, 0.000, 23:53:20.474, 1547020400474
37, -194.40, -198.07, -152.32, -224.03, 0.000, 0.000, 0.000, 23:53:20.474, 1547020400474
38, -190.26, -190.54, -134.02, -219.66, 0.000, 0.000, 0.000, 23:53:20.474, 1547020400474
38, -190.26, -190.54, -134.02, -219.66, 0.000, 0.000, 0.000, 23:53:20.474, 1547020400474
39, -188.66, -190.96, -148.05, -222.94, 0.000, 0.000, 0.000, 23:53:20.488, 1547020400488
39, -188.66, -190.96, -148.05, -222.94, 0.000, 0.000, 0.000, 23:53:20.488, 1547020400488
40, -186.71, -191.28, -173.46, -238.24, 0.000, 0.000, 0.000, 23:53:20.488, 1547020400488
40, -186.71, -191.28, -173.46, -238.24, 0.000, 0.000, 0.000, 23:53:20.488, 1547020400488
41, -185.74, -187.38, -153.83, -228.17, 0.000, 0.000, 0.000, 23:53:20.489, 1547020400489
41, -185.74, -187.38, -153.83, -228.17, 0.000, 0.000, 0.000, 23:53:20.489, 1547020400489
42, -183.53, -181.13, -140.61, -232.38, 0.000, 0.000, 0.000, 23:53:20.489, 1547020400489
42, -183.53, -181.13, -140.61, -232.38, 0.000, 0.000, 0.000, 23:53:20.489, 1547020400489
43, -187.71, -189.53, -166.42, -235.95, 0.000, 0.000, 0.000, 23:53:20.503, 1547020400503
43, -187.71, -189.53, -166.42, -235.95, 0.000, 0.000, 0.000, 23:53:20.503, 1547020400503
44, -176.03, -183.56, -145.41, -217.99, 0.000, 0.000, 0.000, 23:53:20.503, 1547020400503
44, -176.03, -183.56, -145.41, -217.99, 0.000, 0.000, 0.000, 23:53:20.503, 1547020400503
45, -183.04, -189.95, -144.12, -219.88, 0.000, 0.000, 0.000, 23:53:20.519, 1547020400519
45, -183.04, -189.95, -144.12, -219.88, 0.000, 0.000, 0.000, 23:53:20.519, 1547020400519
46, -180.39, -193.57, -139.33, -226.25, 0.000, 0.000, 0.000, 23:53:20.519, 1547020400519
46, -180.39, -193.57, -139.33, -226.25, 0.000, 0.000, 0.000, 23:53:20.519, 1547020400519
47, -177.29, -191.59, -139.40, -219.71, 0.000, 0.000, 0.000, 23:53:20.526, 1547020400526
47, -177.29, -191.59, -139.40, -219.71, 0.000, 0.000, 0.000, 23:53:20.526, 1547020400526
48, -177.21, -192.63, -151.49, -223.80, 0.000, 0.000, 0.000, 23:53:20.526, 1547020400526
48, -177.21, -192.63, -151.49, -223.80, 0.000, 0.000, 0.000, 23:53:20.526, 1547020400526
49, -171.51, -182.68, -165.53, -222.10, 0.000, 0.000, 0.000, 23:53:20.534, 1547020400534
49, -171.51, -182.68, -165.53, -222.10, 0.000, 0.000, 0.000, 23:53:20.534, 1547020400534
50, -180.95, -194.70, -167.62, -224.89, 0.000, 0.000, 0.000, 23:53:20.534, 1547020400534
50, -180.95, -194.70, -167.62, -224.89, 0.000, 0.000, 0.000, 23:53:20.534, 1547020400534
51, -169.54, -184.06, -148.79, -212.05, 0.000, 0.000, 0.000, 23:53:20.548, 1547020400548
51, -169.54, -184.06, -148.79, -212.05, 0.000, 0.000, 0.000, 23:53:20.548, 1547020400548
52, -176.99, -191.67, -146.89, -218.58, 0.000, 0.000, 0.000, 23:53:20.548, 1547020400548
52, -176.99, -191.67, -146.89, -218.58, 0.000, 0.000, 0.000, 23:53:20.548, 1547020400548
53, -171.56, -185.69, -138.36, -216.67, 0.000, 0.000, 0.000, 23:53:20.550, 1547020400550
53, -171.56, -185.69, -138.36, -216.67, 0.000, 0.000, 0.000, 23:53:20.550, 1547020400550
54, -175.54, -186.23, -145.89, -219.20, 0.000, 0.000, 0.000, 23:53:20.550, 1547020400550
54, -175.54, -186.23, -145.89, -219.20, 0.000, 0.000, 0.000, 23:53:20.550, 1547020400550
55, -173.64, -186.59, -147.44, -223.03, 0.000, 0.000, 0.000, 23:53:20.563, 1547020400563
55, -173.64, -186.59, -147.44, -223.03, 0.000, 0.000, 0.000, 23:53:20.563, 1547020400563
56, -169.14, -187.71, -141.75, -223.15, 0.000, 0.000, 0.000, 23:53:20.563, 1547020400563
56, -169.14, -187.71, -141.75, -223.15, 0.000, 0.000, 0.000, 23:53:20.563, 1547020400563
57, -179.63, -187.82, -140.82, -224.03, 0.000, 0.000, 0.000, 23:53:20.578, 1547020400578
57, -179.63, -187.82, -140.82, -224.03, 0.000, 0.000, 0.000, 23:53:20.578, 1547020400578
58, -176.14, -184.16, -143.93, -226.92, 0.000, 0.000, 0.000, 23:53:20.578, 1547020400578
58, -176.14, -184.16, -143.93, -226.92, 0.000, 0.000, 0.000, 23:53:20.578, 1547020400578
59, -175.69, -182.39, -147.08, -224.81, 0.000, 0.000, 0.000, 23:53:20.579, 1547020400579
59, -175.69, -182.39, -147.08, -224.81, 0.000, 0.000, 0.000, 23:53:20.579, 1547020400579
60, -173.41, -181.69, -138.34, -212.89, 0.000, 0.000, 0.000, 23:53:20.579, 1547020400579
60, -173.41, -181.69, -138.34, -212.89, 0.000, 0.000, 0.000, 23:53:20.579, 1547020400579
61, -170.89, -174.92, -136.11, -204.06, 0.000, 0.000, 0.000, 23:53:20.593, 1547020400593
61, -170.89, -174.92, -136.11, -204.06, 0.000, 0.000, 0.000, 23:53:20.593, 1547020400593
62, -169.78, -175.33, -133.14, -216.04, 0.000, 0.000, 0.000, 23:53:20.593, 1547020400593
62, -169.78, -175.33, -133.14, -216.04, 0.000, 0.000, 0.000, 23:53:20.593, 1547020400593
63, -170.73, -179.69, -131.75, -212.86, 0.000, 0.000, 0.000, 23:53:20.608, 1547020400608
63, -170.73, -179.69, -131.75, -212.86, 0.000, 0.000, 0.000, 23:53:20.608, 1547020400608
64, -174.89, -177.73, -148.99, -225.68, 0.000, 0.000, 0.000, 23:53:20.608, 1547020400608
64, -174.89, -177.73, -148.99, -225.68, 0.000, 0.000, 0.000, 23:53:20.608, 1547020400608
65, -174.04, -177.03, -157.03, -213.17, 0.000, 0.000, 0.000, 23:53:20.609, 1547020400609
65, -174.04, -177.03, -157.03, -213.17, 0.000, 0.000, 0.000, 23:53:20.609, 1547020400609
66, -176.05, -183.32, -150.62, -219.38, 0.000, 0.000, 0.000, 23:53:20.609, 1547020400609
66, -176.05, -183.32, -150.62, -219.38, 0.000, 0.000, 0.000, 23:53:20.609, 1547020400609
67, -179.90, -183.40, -155.09, -234.49, 0.000, 0.000, 0.000, 23:53:20.625, 1547020400625
67, -179.90, -183.40, -155.09, -234.49, 0.000, 0.000, 0.000, 23:53:20.625, 1547020400625
68, -186.41, -186.48, -159.19, -222.64, 0.000, 0.000, 0.000, 23:53:20.625, 1547020400625
68, -186.41, -186.48, -159.19, -222.64, 0.000, 0.000, 0.000, 23:53:20.625, 1547020400625
69, -180.66, -183.34, -161.35, -227.06, 0.000, 0.000, 0.000, 23:53:20.638, 1547020400638
69, -180.66, -183.34, -161.35, -227.06, 0.000, 0.000, 0.000, 23:53:20.638, 1547020400638
70, -182.75, -187.13, -154.90, -228.31, 0.000, 0.000, 0.000, 23:53:20.638, 1547020400638
70, -182.75, -187.13, -154.90, -228.31, 0.000, 0.000, 0.000, 23:53:20.638, 1547020400638
71, -177.07, -182.77, -143.77, -219.40, 0.000, 0.000, 0.000, 23:53:20.640, 1547020400640
71, -177.07, -182.77, -143.77, -219.40, 0.000, 0.000, 0.000, 23:53:20.640, 1547020400640
72, -179.80, -187.12, -146.76, -213.33, 0.000, 0.000, 0.000, 23:53:20.640, 1547020400640
72, -179.80, -187.12, -146.76, -213.33, 0.000, 0.000, 0.000, 23:53:20.640, 1547020400640
73, -173.88, -178.10, -149.56, -215.81, 0.000, 0.000, 0.000, 23:53:20.654, 1547020400654
73, -173.88, -178.10, -149.56, -215.81, 0.000, 0.000, 0.000, 23:53:20.654, 1547020400654
74, -184.83, -187.78, -160.81, -234.04, 0.000, 0.000, 0.000, 23:53:20.654, 1547020400654
74, -184.83, -187.78, -160.81, -234.04, 0.000, 0.000, 0.000, 23:53:20.654, 1547020400654
75, -184.88, -192.39, -151.91, -231.03, 0.000, 0.000, 0.000, 23:53:20.669, 1547020400669
75, -184.88, -192.39, -151.91, -231.03, 0.000, 0.000, 0.000, 23:53:20.669, 1547020400669
76, -173.68, -175.59, -131.92, -221.14, 0.000, 0.000, 0.000, 23:53:20.669, 1547020400669
76, -173.68, -175.59, -131.92, -221.14, 0.000, 0.000, 0.000, 23:53:20.669, 1547020400669
77, -179.58, -179.18, -152.96, -225.10, 0.000, 0.000, 0.000, 23:53:20.670, 1547020400670
77, -179.58, -179.18, -152.96, -225.10, 0.000, 0.000, 0.000, 23:53:20.670, 1547020400670
78, -183.52, -184.91, -160.02, -229.48, 0.000, 0.000, 0.000, 23:53:20.670, 1547020400670
78, -183.52, -184.91, -160.02, -229.48, 0.000, 0.000, 0.000, 23:53:20.670, 1547020400670
79, -185.18, -186.53, -151.46, -226.32, 0.000, 0.000, 0.000, 23:53:20.684, 1547020400684
79, -185.18, -186.53, -151.46, -226.32, 0.000, 0.000, 0.000, 23:53:20.684, 1547020400684
80, -176.31, -176.69, -134.67, -216.56, 0.000, 0.000, 0.000, 23:53:20.684, 1547020400684
80, -176.31, -176.69, -134.67, -216.56, 0.000, 0.000, 0.000, 23:53:20.684, 1547020400684
81, -181.01, -182.28, -128.92, -215.34, 0.000, 0.000, 0.000, 23:53:20.698, 1547020400698
81, -181.01, -182.28, -128.92, -215.34, 0.000, 0.000, 0.000, 23:53:20.698, 1547020400698
82, -181.26, -181.32, -141.82, -220.58, 0.000, 0.000, 0.000, 23:53:20.698, 1547020400698
82, -181.26, -181.32, -141.82, -220.58, 0.000, 0.000, 0.000, 23:53:20.698, 1547020400698
83, -183.36, -190.42, -158.52, -221.15, 0.000, 0.000, 0.000, 23:53:20.699, 1547020400699
83, -183.36, -190.42, -158.52, -221.15, 0.000, 0.000, 0.000, 23:53:20.699, 1547020400699
84, -185.26, -191.54, -144.44, -215.19, 0.000, 0.000, 0.000, 23:53:20.699, 1547020400699
84, -185.26, -191.54, -144.44, -215.19, 0.000, 0.000, 0.000, 23:53:20.699, 1547020400699
85, -186.35, -184.90, -166.45, -227.86, 0.000, 0.000, 0.000, 23:53:20.713, 1547020400713
85, -186.35, -184.90, -166.45, -227.86, 0.000, 0.000, 0.000, 23:53:20.713, 1547020400713
86, -178.76, -182.06, -140.69, -216.59, 0.000, 0.000, 0.000, 23:53:20.713, 1547020400713
86, -178.76, -182.06, -140.69, -216.59, 0.000, 0.000, 0.000, 23:53:20.713, 1547020400713
87, -181.02, -181.83, -150.14, -224.69, 0.000, 0.000, 0.000, 23:53:20.728, 1547020400728
87, -181.02, -181.83, -150.14, -224.69, 0.000, 0.000, 0.000, 23:53:20.728, 1547020400728
88, -185.86, -192.01, -154.79, -231.78, 0.000, 0.000, 0.000, 23:53:20.728, 1547020400728
88, -185.86, -192.01, -154.79, -231.78, 0.000, 0.000, 0.000, 23:53:20.728, 1547020400728
89, -184.84, -191.80, -136.84, -224.36, 0.000, 0.000, 0.000, 23:53:20.729, 1547020400729
89, -184.84, -191.80, -136.84, -224.36, 0.000, 0.000, 0.000, 23:53:20.729, 1547020400729
90, -187.20, -190.90, -159.00, -230.72, 0.000, 0.000, 0.000, 23:53:20.729, 1547020400729
90, -187.20, -190.90, -159.00, -230.72, 0.000, 0.000, 0.000, 23:53:20.729, 1547020400729
91, -186.75, -189.68, -168.10, -230.43, 0.000, 0.000, 0.000, 23:53:20.743, 1547020400743
91, -186.75, -189.68, -168.10, -230.43, 0.000, 0.000, 0.000, 23:53:20.743, 1547020400743
92, -182.93, -184.58, -151.75, -232.84, 0.000, 0.000, 0.000, 23:53:20.743, 1547020400743
92, -182.93, -184.58, -151.75, -232.84, 0.000, 0.000, 0.000, 23:53:20.743, 1547020400743
93, -191.31, -190.87, -152.49, -231.83, 0.000, 0.000, 0.000, 23:53:20.758, 1547020400758
93, -191.31, -190.87, -152.49, -231.83, 0.000, 0.000, 0.000, 23:53:20.758, 1547020400758
94, -192.08, -191.81, -159.45, -226.09, 0.000, 0.000, 0.000, 23:53:20.758, 1547020400758
94, -192.08, -191.81, -159.45, -226.09, 0.000, 0.000, 0.000, 23:53:20.758, 1547020400758
95, -192.86, -190.85, -156.74, -228.32, 0.000, 0.000, 0.000, 23:53:20.759, 1547020400759
95, -192.86, -190.85, -156.74, -228.32, 0.000, 0.000, 0.000, 23:53:20.759, 1547020400759
96, -193.26, -191.97, -158.92, -234.80, 0.000, 0.000, 0.000, 23:53:20.759, 1547020400759
96, -193.26, -191.97, -158.92, -234.80, 0.000, 0.000, 0.000, 23:53:20.759, 1547020400759
97, -193.58, -193.43, -149.53, -233.64, 0.000, 0.000, 0.000, 23:53:20.774, 1547020400774
97, -193.58, -193.43, -149.53, -233.64, 0.000, 0.000, 0.000, 23:53:20.774, 1547020400774
98, -191.78, -196.43, -148.34, -229.69, 0.000, 0.000, 0.000, 23:53:20.774, 1547020400774
98, -191.78, -196.43, -148.34, -229.69, 0.000, 0.000, 0.000, 23:53:20.774, 1547020400774
99, -194.82, -197.79, -152.61, -235.08, 0.000, 0.000, 0.000, 23:53:20.789, 1547020400789
99, -194.82, -197.79, -152.61, -235.08, 0.000, 0.000, 0.000, 23:53:20.789, 1547020400789
100, -188.93, -189.35, -149.28, -222.13, 0.000, 0.000, 0.000, 23:53:20.789, 1547020400789
100, -188.93, -189.35, -149.28, -222.13, 0.000, 0.000, 0.000, 23:53:20.789, 1547020400789
101, -182.45, -185.23, -153.19, -219.66, 0.000, 0.000, 0.000, 23:53:20.789, 1547020400789
101, -182.45, -185.23, -153.19, -219.66, 0.000, 0.000, 0.000, 23:53:20.789, 1547020400789
102, -183.99, -183.00, -146.12, -216.07, 0.000, 0.000, 0.000, 23:53:20.789, 1547020400789
102, -183.99, -183.00, -146.12, -216.07, 0.000, 0.000, 0.000, 23:53:20.789, 1547020400789
103, -188.78, -188.51, -139.07, -219.71, 0.000, 0.000, 0.000, 23:53:20.804, 1547020400804
103, -188.78, -188.51, -139.07, -219.71, 0.000, 0.000, 0.000, 23:53:20.804, 1547020400804
104, -186.92, -193.02, -140.79, -222.17, 0.000, 0.000, 0.000, 23:53:20.804, 1547020400804
104, -186.92, -193.02, -140.79, -222.17, 0.000, 0.000, 0.000, 23:53:20.804, 1547020400804
105, -184.30, -189.84, -164.16, -232.00, 0.000, 0.000, 0.000, 23:53:20.818, 1547020400818
105, -184.30, -189.84, -164.16, -232.00, 0.000, 0.000, 0.000, 23:53:20.818, 1547020400818
106, -183.01, -187.43, -157.27, -223.76, 0.000, 0.000, 0.000, 23:53:20.818, 1547020400818
106, -183.01, -187.43, -157.27, -223.76, 0.000, 0.000, 0.000, 23:53:20.818, 1547020400818
107, -179.26, -180.76, -143.93, -212.50, 0.000, 0.000, 0.000, 23:53:20.819, 1547020400819
107, -179.26, -180.76, -143.93, -212.50, 0.000, 0.000, 0.000, 23:53:20.819, 1547020400819
108, -172.42, -175.13, -128.75, -211.75, 0.000, 0.000, 0.000, 23:53:20.819, 1547020400819
108, -172.42, -175.13, -128.75, -211.75, 0.000, 0.000, 0.000, 23:53:20.819, 1547020400819
109, -174.88, -181.64, -149.91, -232.28, 0.000, 0.000, 0.000, 23:53:20.833, 1547020400833
109, -174.88, -181.64, -149.91, -232.28, 0.000, 0.000, 0.000, 23:53:20.833, 1547020400833
110, -183.15, -188.06, -151.35, -224.38, 0.000, 0.000, 0.000, 23:53:20.833, 1547020400833
110, -183.15, -188.06, -151.35, -224.38, 0.000, 0.000, 0.000, 23:53:20.833, 1547020400833
111, -177.26, -182.41, -146.59, -219.41, 0.000, 0.000, 0.000, 23:53:20.848, 1547020400848
111, -177.26, -182.41, -146.59, -219.41, 0.000, 0.000, 0.000, 23:53:20.848, 1547020400848
112, -175.64, -188.04, -160.34, -230.06, 0.000, 0.000, 0.000, 23:53:20.848, 1547020400848
112, -175.64, -188.04, -160.34, -230.06, 0.000, 0.000, 0.000, 23:53:20.848, 1547020400848
113, -180.88, -192.43, -154.33, -227.72, 0.000, 0.000, 0.000, 23:53:20.849, 1547020400849
113, -180.88, -192.43, -154.33, -227.72, 0.000, 0.000, 0.000, 23:53:20.849, 1547020400849
114, -179.11, -185.56, -142.07, -211.19, 0.000, 0.000, 0.000, 23:53:20.849, 1547020400849
114, -179.11, -185.56, -142.07, -211.19, 0.000, 0.000, 0.000, 23:53:20.849, 1547020400849
115, -184.86, -191.79, -154.89, -216.05, 0.000, 0.000, 0.000, 23:53:20.863, 1547020400863
115, -184.86, -191.79, -154.89, -216.05, 0.000, 0.000, 0.000, 23:53:20.863, 1547020400863
116, -179.30, -193.57, -137.76, -211.91, 0.000, 0.000, 0.000, 23:53:20.863, 1547020400863
116, -179.30, -193.57, -137.76, -211.91, 0.000, 0.000, 0.000, 23:53:20.863, 1547020400863
117, -183.18, -196.35, -150.16, -232.56, 0.000, 0.000, 0.000, 23:53:20.878, 1547020400878
117, -183.18, -196.35, -150.16, -232.56, 0.000, 0.000, 0.000, 23:53:20.878, 1547020400878
118, -181.88, -192.82, -140.78, -221.85, 0.000, 0.000, 0.000, 23:53:20.878, 1547020400878
118, -181.88, -192.82, -140.78, -221.85, 0.000, 0.000, 0.000, 23:53:20.878, 1547020400878
119, -181.21, -191.54, -141.16, -219.01, 0.000, 0.000, 0.000, 23:53:20.879, 1547020400879
119, -181.21, -191.54, -141.16, -219.01, 0.000, 0.000, 0.000, 23:53:20.879, 1547020400879
120, -180.00, -196.73, -133.54, -219.20, 0.000, 0.000, 0.000, 23:53:20.879, 1547020400879
120, -180.00, -196.73, -133.54, -219.20, 0.000, 0.000, 0.000, 23:53:20.879, 1547020400879
121, -179.19, -198.60, -138.67, -222.35, 0.000, 0.000, 0.000, 23:53:20.893, 1547020400893
121, -179.19, -198.60, -138.67, -222.35, 0.000, 0.000, 0.000, 23:53:20.893, 1547020400893
122, -174.02, -197.87, -125.34, -211.15, 0.000, 0.000, 0.000, 23:53:20.893, 1547020400893
122, -174.02, -197.87, -125.34, -211.15, 0.000, 0.000, 0.000, 23:53:20.893, 1547020400893
123, -185.06, -209.13, -124.39, -211.89, 0.000, 0.000, 0.000, 23:53:20.908, 1547020400908
123, -185.06, -209.13, -124.39, -211.89, 0.000, 0.000, 0.000, 23:53:20.908, 1547020400908
124, -187.73, -209.55, -148.29, -222.35, 0.000, 0.000, 0.000, 23:53:20.908, 1547020400908
124, -187.73, -209.55, -148.29, -222.35, 0.000, 0.000, 0.000, 23:53:20.908, 1547020400908
125, -190.91, -211.84, -162.65, -225.84, 0.000, 0.000, 0.000, 23:53:20.909, 1547020400909
125, -190.91, -211.84, -162.65, -225.84, 0.000, 0.000, 0.000, 23:53:20.909, 1547020400909
126, -189.59, -210.63, -158.70, -226.79, 0.000, 0.000, 0.000, 23:53:20.909, 1547020400909
126, -189.59, -210.63, -158.70, -226.79, 0.000, 0.000, 0.000, 23:53:20.909, 1547020400909
127, -185.36, -214.62, -148.01, -222.58, 0.000, 0.000, 0.000, 23:53:20.930, 1547020400930
127, -185.36, -214.62, -148.01, -222.58, 0.000, 0.000, 0.000, 23:53:20.930, 1547020400930
128, -185.55, -212.33, -150.69, -213.25, 0.000, 0.000, 0.000, 23:53:20.930, 1547020400930
128, -185.55, -212.33, -150.69, -213.25, 0.000, 0.000, 0.000, 23:53:20.930, 1547020400930
129, -175.79, -204.45, -143.41, -221.05, 0.000, 0.000, 0.000, 23:53:20.939, 1547020400939
129, -175.79, -204.45, -143.41, -221.05, 0.000, 0.000, 0.000, 23:53:20.939, 1547020400939
130, -182.29, -210.44, -142.16, -224.68, 0.000, 0.000, 0.000, 23:53:20.939, 1547020400939
130, -182.29, -210.44, -142.16, -224.68, 0.000, 0.000, 0.000, 23:53:20.939, 1547020400939
131, -179.17, -210.40, -137.99, -227.30, 0.000, 0.000, 0.000, 23:53:20.940, 1547020400940
131, -179.17, -210.40, -137.99, -227.30, 0.000, 0.000, 0.000, 23:53:20.940, 1547020400940
132, -182.37, -215.20, -163.72, -233.50, 0.000, 0.000, 0.000, 23:53:20.940, 1547020400940
132, -182.37, -215.20, -163.72, -233.50, 0.000, 0.000, 0.000, 23:53:20.940, 1547020400940
133, -172.48, -202.37, -152.69, -216.24, 0.000, 0.000, 0.000, 23:53:20.953, 1547020400953
133, -172.48, -202.37, -152.69, -216.24, 0.000, 0.000, 0.000, 23:53:20.953, 1547020400953
134, -174.78, -206.56, -149.41, -227.60, 0.000, 0.000, 0.000, 23:53:20.953, 1547020400953
134, -174.78, -206.56, -149.41, -227.60, 0.000, 0.000, 0.000, 23:53:20.953, 1547020400953
135, -174.04, -202.09, -159.73, -224.85, 0.000, 0.000, 0.000, 23:53:20.969, 1547020400969
135, -174.04, -202.09, -159.73, -224.85, 0.000, 0.000, 0.000, 23:53:20.969, 1547020400969
136, -173.20, -203.93, -151.66, -221.19, 0.000, 0.000, 0.000, 23:53:20.969, 1547020400969
136, -173.20, -203.93, -151.66, -221.19, 0.000, 0.000, 0.000, 23:53:20.969, 1547020400969
137, -175.24, -194.49, -153.93, -223.98, 0.000, 0.000, 0.000, 23:53:20.970, 1547020400970
137, -175.24, -194.49, -153.93, -223.98, 0.000, 0.000, 0.000, 23:53:20.970, 1547020400970
138, -182.29, -201.28, -156.47, -217.28, 0.000, 0.000, 0.000, 23:53:20.970, 1547020400970
138, -182.29, -201.28, -156.47, -217.28, 0.000, 0.000, 0.000, 23:53:20.970, 1547020400970
139, -183.51, -200.74, -142.54, -214.11, 0.000, 0.000, 0.000, 23:53:20.984, 1547020400984
139, -183.51, -200.74, -142.54, -214.11, 0.000, 0.000, 0.000, 23:53:20.984, 1547020400984
140, -181.67, -197.03, -142.10, -224.08, 0.000, 0.000, 0.000, 23:53:20.984, 1547020400984
140, -181.67, -197.03, -142.10, -224.08, 0.000, 0.000, 0.000, 23:53:20.984, 1547020400984
141, -184.35, -194.82, -153.03, -213.65, 0.000, 0.000, 0.000, 23:53:20.998, 1547020400998
141, -184.35, -194.82, -153.03, -213.65, 0.000, 0.000, 0.000, 23:53:20.998, 1547020400998
142, -189.21, -198.28, -150.57, -229.42, 0.000, 0.000, 0.000, 23:53:20.998, 1547020400998
142, -189.21, -198.28, -150.57, -229.42, 0.000, 0.000, 0.000, 23:53:20.998, 1547020400998
143, -182.68, -194.65, -154.24, -225.13, 0.000, 0.000, 0.000, 23:53:20.999, 1547020400999
143, -182.68, -194.65, -154.24, -225.13, 0.000, 0.000, 0.000, 23:53:20.999, 1547020400999
144, -182.46, -191.26, -149.45, -224.14, 0.000, 0.000, 0.000, 23:53:20.999, 1547020400999
144, -182.46, -191.26, -149.45, -224.14, 0.000, 0.000, 0.000, 23:53:20.999, 1547020400999
145, -178.52, -191.57, -137.68, -218.28, 0.000, 0.000, 0.000, 23:53:21.013, 1547020401013
145, -178.52, -191.57, -137.68, -218.28, 0.000, 0.000, 0.000, 23:53:21.013, 1547020401013
146, -181.82, -188.91, -158.29, -221.90, 0.000, 0.000, 0.000, 23:53:21.013, 1547020401013
146, -181.82, -188.91, -158.29, -221.90, 0.000, 0.000, 0.000, 23:53:21.013, 1547020401013
147, -179.76, -184.12, -150.92, -223.41, 0.000, 0.000, 0.000, 23:53:21.028, 1547020401028
147, -179.76, -184.12, -150.92, -223.41, 0.000, 0.000, 0.000, 23:53:21.028, 1547020401028
148, -182.45, -193.35, -152.15, -239.10, 0.000, 0.000, 0.000, 23:53:21.028, 1547020401028
148, -182.45, -193.35, -152.15, -239.10, 0.000, 0.000, 0.000, 23:53:21.028, 1547020401028
149, -178.66, -188.06, -158.12, -238.29, 0.000, 0.000, 0.000, 23:53:21.030, 1547020401030
149, -178.66, -188.06, -158.12, -238.29, 0.000, 0.000, 0.000, 23:53:21.030, 1547020401030
150, -182.33, -188.39, -160.83, -232.93, 0.000, 0.000, 0.000, 23:53:21.030, 1547020401030
150, -182.33, -188.39, -160.83, -232.93, 0.000, 0.000, 0.000, 23:53:21.030, 1547020401030
151, -180.98, -190.85, -151.17, -228.89, 0.000, 0.000, 0.000, 23:53:21.044, 1547020401044
151, -180.98, -190.85, -151.17, -228.89, 0.000, 0.000, 0.000, 23:53:21.044, 1547020401044
152, -177.98, -186.00, -126.26, -215.34, 0.000, 0.000, 0.000, 23:53:21.044, 1547020401044
152, -177.98, -186.00, -126.26, -215.34, 0.000, 0.000, 0.000, 23:53:21.044, 1547020401044
153, -175.68, -184.45, -137.02, -225.83, 0.000, 0.000, 0.000, 23:53:21.059, 1547020401059
153, -175.68, -184.45, -137.02, -225.83, 0.000, 0.000, 0.000, 23:53:21.059, 1547020401059
154, -183.57, -184.36, -166.80, -234.84, 0.000, 0.000, 0.000, 23:53:21.059, 1547020401059
154, -183.57, -184.36, -166.80, -234.84, 0.000, 0.000, 0.000, 23:53:21.059, 1547020401059
155, -182.42, -179.01, -161.95, -226.46, 0.000, 0.000, 0.000, 23:53:21.059, 1547020401059
155, -182.42, -179.01, -161.95, -226.46, 0.000, 0.000, 0.000, 23:53:21.059, 1547020401059
156, -187.95, -183.62, -153.46, -225.64, 0.000, 0.000, 0.000, 23:53:21.059, 1547020401059
156, -187.95, -183.62, -153.46, -225.64, 0.000, 0.000, 0.000, 23:53:21.059, 1547020401059
157, -175.99, -178.84, -143.61, -225.43, 0.000, 0.000, 0.000, 23:53:21.074, 1547020401074
157, -175.99, -178.84, -143.61, -225.43, 0.000, 0.000, 0.000, 23:53:21.074, 1547020401074
158, -182.27, -178.85, -150.78, -226.02, 0.000, 0.000, 0.000, 23:53:21.074, 1547020401074
158, -182.27, -178.85, -150.78, -226.02, 0.000, 0.000, 0.000, 23:53:21.074, 1547020401074
159, -182.17, -183.77, -152.26, -229.11, 0.000, 0.000, 0.000, 23:53:21.089, 1547020401089
159, -182.17, -183.77, -152.26, -229.11, 0.000, 0.000, 0.000, 23:53:21.089, 1547020401089
160, -176.23, -180.20, -138.79, -216.20, 0.000, 0.000, 0.000, 23:53:21.089, 1547020401089
160, -176.23, -180.20, -138.79, -216.20, 0.000, 0.000, 0.000, 23:53:21.089, 1547020401089
161, -176.72, -175.76, -148.45, -210.62, 0.000, 0.000, 0.000, 23:53:21.089, 1547020401089
161, -176.72, -175.76, -148.45, -210.62, 0.000, 0.000, 0.000, 23:53:21.089, 1547020401089
162, -175.35, -173.62, -149.43, -226.52, 0.000, 0.000, 0.000, 23:53:21.089, 1547020401089
162, -175.35, -173.62, -149.43, -226.52, 0.000, 0.000, 0.000, 23:53:21.089, 1547020401089
163, -178.31, -176.42, -149.72, -233.79, 0.000, 0.000, 0.000, 23:53:21.104, 1547020401104
163, -178.31, -176.42, -149.72, -233.79, 0.000, 0.000, 0.000, 23:53:21.104, 1547020401104
164, -176.10, -172.01, -150.24, -230.22, 0.000, 0.000, 0.000, 23:53:21.104, 1547020401104
164, -176.10, -172.01, -150.24, -230.22, 0.000, 0.000, 0.000, 23:53:21.104, 1547020401104
165, -179.84, -170.25, -137.69, -219.79, 0.000, 0.000, 0.000, 23:53:21.118, 1547020401118
165, -179.84, -170.25, -137.69, -219.79, 0.000, 0.000, 0.000, 23:53:21.118, 1547020401118
166, -176.80, -170.15, -149.05, -226.82, 0.000, 0.000, 0.000, 23:53:21.118, 1547020401118
166, -176.80, -170.15, -149.05, -226.82, 0.000, 0.000, 0.000, 23:53:21.118, 1547020401118
167, -180.39, -173.42, -143.31, -224.98, 0.000, 0.000, 0.000, 23:53:21.119, 1547020401119
167, -180.39, -173.42, -143.31, -224.98, 0.000, 0.000, 0.000, 23:53:21.119, 1547020401119
168, -174.26, -172.65, -148.60, -229.08, 0.000, 0.000, 0.000, 23:53:21.119, 1547020401119
168, -174.26, -172.65, -148.60, -229.08, 0.000, 0.000, 0.000, 23:53:21.119, 1547020401119
169, -179.81, -172.50, -157.15, -229.05, 0.000, 0.000, 0.000, 23:53:21.133, 1547020401133
169, -179.81, -172.50, -157.15, -229.05, 0.000, 0.000, 0.000, 23:53:21.133, 1547020401133
170, -180.30, -166.42, -152.13, -225.50, 0.000, 0.000, 0.000, 23:53:21.133, 1547020401133
170, -180.30, -166.42, -152.13, -225.50, 0.000, 0.000, 0.000, 23:53:21.133, 1547020401133
171, -174.34, -166.35, -146.44, -205.01, 0.000, 0.000, 0.000, 23:53:21.148, 1547020401148
171, -174.34, -166.35, -146.44, -205.01, 0.000, 0.000, 0.000, 23:53:21.148, 1547020401148
172, -180.85, -173.06, -147.93, -222.30, 0.000, 0.000, 0.000, 23:53:21.148, 1547020401148
172, -180.85, -173.06, -147.93, -222.30, 0.000, 0.000, 0.000, 23:53:21.148, 1547020401148
173, -182.61, -178.75, -145.52, -231.38, 0.000, 0.000, 0.000, 23:53:21.149, 1547020401149
173, -182.61, -178.75, -145.52, -231.38, 0.000, 0.000, 0.000, 23:53:21.149, 1547020401149
174, -174.30, -168.65, -148.03, -215.40, 0.000, 0.000, 0.000, 23:53:21.149, 1547020401149
174, -174.30, -168.65, -148.03, -215.40, 0.000, 0.000, 0.000, 23:53:21.149, 1547020401149
175, -176.13, -169.54, -146.03, -212.01, 0.000, 0.000, 0.000, 23:53:21.163, 1547020401163
175, -176.13, -169.54, -146.03, -212.01, 0.000, 0.000, 0.000, 23:53:21.163, 1547020401163
176, -175.74, -173.43, -133.17, -206.65, 0.000, 0.000, 0.000, 23:53:21.163, 1547020401163
176, -175.74, -173.43, -133.17, -206.65, 0.000, 0.000, 0.000, 23:53:21.163, 1547020401163
177, -179.06, -171.98, -142.60, -222.38, 0.000, 0.000, 0.000, 23:53:21.178, 1547020401178
177, -179.06, -171.98, -142.60, -222.38, 0.000, 0.000, 0.000, 23:53:21.178, 1547020401178
178, -180.69, -174.82, -135.17, -222.63, 0.000, 0.000, 0.000, 23:53:21.178, 1547020401178
178, -180.69, -174.82, -135.17, -222.63, 0.000, 0.000, 0.000, 23:53:21.178, 1547020401178
179, -185.82, -183.64, -144.60, -223.87, 0.000, 0.000, 0.000, 23:53:21.179, 1547020401179
179, -185.82, -183.64, -144.60, -223.87, 0.000, 0.000, 0.000, 23:53:21.179, 1547020401179
180, -178.84, -176.73, -152.70, -222.46, 0.000, 0.000, 0.000, 23:53:21.179, 1547020401179
180, -178.84, -176.73, -152.70, -222.46, 0.000, 0.000, 0.000, 23:53:21.179, 1547020401179
181, -185.27, -173.26, -142.45, -217.65, 0.000, 0.000, 0.000, 23:53:21.194, 1547020401194
181, -185.27, -173.26, -142.45, -217.65, 0.000, 0.000, 0.000, 23:53:21.194, 1547020401194
182, -179.46, -172.15, -137.01, -219.97, 0.000, 0.000, 0.000, 23:53:21.194, 1547020401194
182, -179.46, -172.15, -137.01, -219.97, 0.000, 0.000, 0.000, 23:53:21.194, 1547020401194
183, -175.06, -172.51, -140.09, -215.25, 0.000, 0.000, 0.000, 23:53:21.209, 1547020401209
183, -175.06, -172.51, -140.09, -215.25, 0.000, 0.000, 0.000, 23:53:21.209, 1547020401209
184, -171.57, -168.61, -141.90, -220.47, 0.000, 0.000, 0.000, 23:53:21.209, 1547020401209
184, -171.57, -168.61, -141.90, -220.47, 0.000, 0.000, 0.000, 23:53:21.209, 1547020401209
185, -172.53, -168.68, -135.80, -218.38, 0.000, 0.000, 0.000, 23:53:21.216, 1547020401216
185, -172.53, -168.68, -135.80, -218.38, 0.000, 0.000, 0.000, 23:53:21.216, 1547020401216
186, -174.73, -171.36, -147.55, -220.20, 0.000, 0.000, 0.000, 23:53:21.216, 1547020401216
186, -174.73, -171.36, -147.55, -220.20, 0.000, 0.000, 0.000, 23:53:21.216, 1547020401216
187, -177.96, -174.81, -150.08, -223.07, 0.000, 0.000, 0.000, 23:53:21.224, 1547020401224
187, -177.96, -174.81, -150.08, -223.07, 0.000, 0.000, 0.000, 23:53:21.224, 1547020401224
188, -166.58, -169.41, -130.47, -207.84, 0.000, 0.000, 0.000, 23:53:21.224, 1547020401224
188, -166.58, -169.41, -130.47, -207.84, 0.000, 0.000, 0.000, 23:53:21.224, 1547020401224
189, -175.48, -172.00, -133.41, -210.20, 0.000, 0.000, 0.000, 23:53:21.239, 1547020401239
189, -175.48, -172.00, -133.41, -210.20, 0.000, 0.000, 0.000, 23:53:21.239, 1547020401239
190, -183.88, -182.33, -163.39, -227.35, 0.000, 0.000, 0.000, 23:53:21.239, 1547020401239
190, -183.88, -182.33, -163.39, -227.35, 0.000, 0.000, 0.000, 23:53:21.239, 1547020401239
191, -181.41, -181.24, -143.97, -219.84, 0.000, 0.000, 0.000, 23:53:21.240, 1547020401240
191, -181.41, -181.24, -143.97, -219.84, 0.000, 0.000, 0.000, 23:53:21.240, 1547020401240
192, -183.29, -186.48, -144.16, -221.09, 0.000, 0.000, 0.000, 23:53:21.240, 1547020401240
192, -183.29, -186.48, -144.16, -221.09, 0.000, 0.000, 0.000, 23:53:21.240, 1547020401240
193, -178.57, -176.22, -139.21, -226.96, 0.000, 0.000, 0.000, 23:53:21.253, 1547020401253
193, -178.57, -176.22, -139.21, -226.96, 0.000, 0.000, 0.000, 23:53:21.253, 1547020401253
194, -181.05, -177.83, -155.30, -224.39, 0.000, 0.000, 0.000, 23:53:21.253, 1547020401253
194, -181.05, -177.83, -155.30, -224.39, 0.000, 0.000, 0.000, 23:53:21.253, 1547020401253
195, -185.71, -176.81, -166.14, -228.97, 0.000, 0.000, 0.000, 23:53:21.269, 1547020401269
195, -185.71, -176.81, -166.14, -228.97, 0.000, 0.000, 0.000, 23:53:21.269, 1547020401269
196, -177.74, -174.28, -148.52, -223.07, 0.000, 0.000, 0.000, 23:53:21.269, 1547020401269
196, -177.74, -174.28, -148.52, -223.07, 0.000, 0.000, 0.000, 23:53:21.269, 1547020401269
197, -176.93, -176.63, -142.25, -220.02, 0.000, 0.000, 0.000, 23:53:21.270, 1547020401270
197, -176.93, -176.63, -142.25, -220.02, 0.000, 0.000, 0.000, 23:53:21.270, 1547020401270
198, -184.25, -175.84, -151.04, -219.03, 0.000, 0.000, 0.000, 23:53:21.270, 1547020401270
198, -184.25, -175.84, -151.04, -219.03, 0.000, 0.000, 0.000, 23:53:21.270, 1547020401270
199, -170.13, -168.20, -135.22, -209.79, 0.000, 0.000, 0.000, 23:53:21.284, 1547020401284
199, -170.13, -168.20, -135.22, -209.79, 0.000, 0.000, 0.000, 23:53:21.284, 1547020401284
200, -178.83, -172.34, -140.48, -214.66, 0.000, 0.000, 0.000, 23:53:21.284, 1547020401284
200, -178.83, -172.34, -140.48, -214.66, 0.000, 0.000, 0.000, 23:53:21.284, 1547020401284
0, -180.57, -179.54, -152.95, -225.20, 0.000, 0.000, 0.000, 23:53:21.286, 1547020401286
0, -180.57, -179.54, -152.95, -225.20, 0.000, 0.000, 0.000, 23:53:21.286, 1547020401286
1, -181.41, -175.85, -148.28, -218.70, 0.000, 0.000, 0.000, 23:53:21.298, 1547020401298
1, -181.41, -175.85, -148.28, -218.70, 0.000, 0.000, 0.000, 23:53:21.298, 1547020401298
2, -180.09, -175.38, -142.78, -215.08, 0.000, 0.000, 0.000, 23:53:21.298, 1547020401298
2, -180.09, -175.38, -142.78, -215.08, 0.000, 0.000, 0.000, 23:53:21.298, 1547020401298
3, -183.28, -178.11, -133.77, -214.75, 0.000, 0.000, 0.000, 23:53:21.313, 1547020401313
3, -183.28, -178.11, -133.77, -214.75, 0.000, 0.000, 0.000, 23:53:21.313, 1547020401313
4, -182.36, -169.45, -137.07, -204.40, 0.000, 0.000, 0.000, 23:53:21.313, 1547020401313
4, -182.36, -169.45, -137.07, -204.40, 0.000, 0.000, 0.000, 23:53:21.313, 1547020401313
5, -195.52, -182.50, -144.51, -219.00, 0.000, 0.000, 0.000, 23:53:21.314, 1547020401314
5, -195.52, -182.50, -144.51, -219.00, 0.000, 0.000, 0.000, 23:53:21.314, 1547020401314
6, -194.85, -177.38, -144.12, -229.66, 0.000, 0.000, 0.000, 23:53:21.314, 1547020401314
6, -194.85, -177.38, -144.12, -229.66, 0.000, 0.000, 0.000, 23:53:21.314, 1547020401314
7, -188.18, -175.32, -140.62, -214.09, 0.000, 0.000, 0.000, 23:53:21.329, 1547020401329
7, -188.18, -175.32, -140.62, -214.09, 0.000, 0.000, 0.000, 23:53:21.329, 1547020401329
8, -192.06, -176.90, -152.59, -222.74, 0.000, 0.000, 0.000, 23:53:21.329, 1547020401329
8, -192.06, -176.90, -152.59, -222.74, 0.000, 0.000, 0.000, 23:53:21.329, 1547020401329
9, -193.22, -179.25, -160.11, -233.83, 0.000, 0.000, 0.000, 23:53:21.344, 1547020401344
9, -193.22, -179.25, -160.11, -233.83, 0.000, 0.000, 0.000, 23:53:21.344, 1547020401344
10, -193.33, -184.67, -145.57, -230.24, 0.000, 0.000, 0.000, 23:53:21.344, 1547020401344
10, -193.33, -184.67, -145.57, -230.24, 0.000, 0.000, 0.000, 23:53:21.344, 1547020401344
11, -186.13, -180.92, -143.24, -224.22, 0.000, 0.000, 0.000, 23:53:21.344, 1547020401344
11, -186.13, -180.92, -143.24, -224.22, 0.000, 0.000, 0.000, 23:53:21.344, 1547020401344
12, -193.32, -180.95, -169.78, -230.91, 0.000, 0.000, 0.000, 23:53:21.344, 1547020401344
12, -193.32, -180.95, -169.78, -230.91, 0.000, 0.000, 0.000, 23:53:21.344, 1547020401344
13, -190.42, -180.51, -160.20, -230.98, 0.000, 0.000, 0.000, 23:53:21.358, 1547020401358
13, -190.42, -180.51, -160.20, -230.98, 0.000, 0.000, 0.000, 23:53:21.358, 1547020401358
14, -190.46, -183.71, -155.21, -225.61, 0.000, 0.000, 0.000, 23:53:21.358, 1547020401358
14, -190.46, -183.71, -155.21, -225.61, 0.000, 0.000, 0.000, 23:53:21.358, 1547020401358
15, -182.95, -184.55, -154.37, -226.13, 0.000, 0.000, 0.000, 23:53:21.374, 1547020401374
15, -182.95, -184.55, -154.37, -226.13, 0.000, 0.000, 0.000, 23:53:21.374, 1547020401374
16, -186.91, -179.98, -132.36, -216.88, 0.000, 0.000, 0.000, 23:53:21.374, 1547020401374
16, -186.91, -179.98, -132.36, -216.88, 0.000, 0.000, 0.000, 23:53:21.374, 1547020401374
17, -191.89, -178.55, -137.56, -222.69, 0.000, 0.000, 0.000, 23:53:21.374, 1547020401374
17, -191.89, -178.55, -137.56, -222.69, 0.000, 0.000, 0.000, 23:53:21.374, 1547020401374
18, -180.08, -180.75, -157.57, -215.40, 0.000, 0.000, 0.000, 23:53:21.374, 1547020401374
18, -180.08, -180.75, -157.57, -215.40, 0.000, 0.000, 0.000, 23:53:21.374, 1547020401374
19, -178.75, -181.70, -154.42, -221.11, 0.000, 0.000, 0.000, 23:53:21.388, 1547020401388
19, -178.75, -181.70, -154.42, -221.11, 0.000, 0.000, 0.000, 23:53:21.388, 1547020401388
20, -181.99, -181.93, -144.29, -216.11, 0.000, 0.000, 0.000, 23:53:21.388, 1547020401388
20, -181.99, -181.93, -144.29, -216.11, 0.000, 0.000, 0.000, 23:53:21.388, 1547020401388
21, -177.99, -177.10, -148.07, -206.69, 0.000, 0.000, 0.000, 23:53:21.404, 1547020401404
21, -177.99, -177.10, -148.07, -206.69, 0.000, 0.000, 0.000, 23:53:21.404, 1547020401404
22, -181.60, -183.25, -141.11, -211.20, 0.000, 0.000, 0.000, 23:53:21.404, 1547020401404
22, -181.60, -183.25, -141.11, -211.20, 0.000, 0.000, 0.000, 23:53:21.404, 1547020401404
23, -178.77, -178.22, -133.58, -200.30, 0.000, 0.000, 0.000, 23:53:21.405, 1547020401405
23, -178.77, -178.22, -133.58, -200.30, 0.000, 0.000, 0.000, 23:53:21.405, 1547020401405
24, -179.39, -179.54, -149.79, -223.40, 0.000, 0.000, 0.000, 23:53:21.405, 1547020401405
24, -179.39, -179.54, -149.79, -223.40, 0.000, 0.000, 0.000, 23:53:21.405, 1547020401405
25, -184.76, -185.53, -157.92, -226.60, 0.000, 0.000, 0.000, 23:53:21.418, 1547020401418
25, -184.76, -185.53, -157.92, -226.60, 0.000, 0.000, 0.000, 23:53:21.418, 1547020401418
26, -179.53, -180.20, -140.30, -222.48, 0.000, 0.000, 0.000, 23:53:21.418, 1547020401418
26, -179.53, -180.20, -140.30, -222.48, 0.000, 0.000, 0.000, 23:53:21.418, 1547020401418
27, -175.56, -180.37, -145.35, -226.08, 0.000, 0.000, 0.000, 23:53:21.435, 1547020401435
27, -175.56, -180.37, -145.35, -226.08, 0.000, 0.000, 0.000, 23:53:21.435, 1547020401435
28, -174.21, -178.73, -142.33, -218.55, 0.000, 0.000, 0.000, 23:53:21.435, 1547020401435
28, -174.21, -178.73, -142.33, -218.55, 0.000, 0.000, 0.000, 23:53:21.435, 1547020401435
29, -176.85, -182.26, -147.81, -221.16, 0.000, 0.000, 0.000, 23:53:21.435, 1547020401435
29, -176.85, -182.26, -147.81, -221.16, 0.000, 0.000, 0.000, 23:53:21.435, 1547020401435
30, -177.35, -181.23, -149.90, -216.35, 0.000, 0.000, 0.000, 23:53:21.435, 1547020401435
30, -177.35, -181.23, -149.90, -216.35, 0.000, 0.000, 0.000, 23:53:21.435, 1547020401435
31, -169.80, -177.92, -149.63, -217.19, 0.000, 0.000, 0.000, 23:53:21.448, 1547020401448
31, -169.80, -177.92, -149.63, -217.19, 0.000, 0.000, 0.000, 23:53:21.448, 1547020401448
32, -177.81, -185.10, -164.04, -233.78, 0.000, 0.000, 0.000, 23:53:21.448, 1547020401448
32, -177.81, -185.10, -164.04, -233.78, 0.000, 0.000, 0.000, 23:53:21.448, 1547020401448
33, -178.64, -185.24, -152.48, -230.14, 0.000, 0.000, 0.000, 23:53:21.464, 1547020401464
33, -178.64, -185.24, -152.48, -230.14, 0.000, 0.000, 0.000, 23:53:21.464, 1547020401464
34, -184.12, -188.11, -140.55, -222.82, 0.000, 0.000, 0.000, 23:53:21.464, 1547020401464
34, -184.12, -188.11, -140.55, -222.82, 0.000, 0.000, 0.000, 23:53:21.464, 1547020401464
35, -173.44, -182.88, -123.24, -215.29, 0.000, 0.000, 0.000, 23:53:21.464, 1547020401464
35, -173.44, -182.88, -123.24, -215.29, 0.000, 0.000, 0.000, 23:53:21.464, 1547020401464
36, -179.02, -181.67, -162.79, -225.46, 0.000, 0.000, 0.000, 23:53:21.464, 1547020401464
36, -179.02, -181.67, -162.79, -225.46, 0.000, 0.000, 0.000, 23:53:21.464, 1547020401464
37, -183.63, -185.64, -163.76, -231.51, 0.000, 0.000, 0.000, 23:53:21.478, 1547020401478
37, -183.63, -185.64, -163.76, -231.51, 0.000, 0.000, 0.000, 23:53:21.478, 1547020401478
38, -181.47, -188.76, -146.61, -217.65, 0.000, 0.000, 0.000, 23:53:21.478, 1547020401478
38, -181.47, -188.76, -146.61, -217.65, 0.000, 0.000, 0.000, 23:53:21.478, 1547020401478
39, -172.74, -182.13, -132.84, -201.48, 0.000, 0.000, 0.000, 23:53:21.493, 1547020401493
39, -172.74, -182.13, -132.84, -201.48, 0.000, 0.000, 0.000, 23:53:21.493, 1547020401493
40, -178.55, -185.70, -141.57, -219.34, 0.000, 0.000, 0.000, 23:53:21.494, 1547020401494
40, -178.55, -185.70, -141.57, -219.34, 0.000, 0.000, 0.000, 23:53:21.494, 1547020401494
41, -174.70, -188.62, -151.69, -218.87, 0.000, 0.000, 0.000, 23:53:21.494, 1547020401494
41, -174.70, -188.62, -151.69, -218.87, 0.000, 0.000, 0.000, 23:53:21.494, 1547020401494
42, -179.99, -192.92, -148.25, -226.90, 0.000, 0.000, 0.000, 23:53:21.494, 1547020401494
42, -179.99, -192.92, -148.25, -226.90, 0.000, 0.000, 0.000, 23:53:21.494, 1547020401494
43, -175.53, -189.19, -146.78, -232.19, 0.000, 0.000, 0.000, 23:53:21.509, 1547020401509
43, -175.53, -189.19, -146.78, -232.19, 0.000, 0.000, 0.000, 23:53:21.509, 1547020401509
44, -169.43, -180.64, -142.85, -220.31, 0.000, 0.000, 0.000, 23:53:21.509, 1547020401509
44, -169.43, -180.64, -142.85, -220.31, 0.000, 0.000, 0.000, 23:53:21.509, 1547020401509
45, -174.26, -186.21, -147.49, -219.46, 0.000, 0.000, 0.000, 23:53:21.523, 1547020401523
45, -174.26, -186.21, -147.49, -219.46, 0.000, 0.000, 0.000, 23:53:21.523, 1547020401523
46, -181.42, -189.15, -153.37, -221.93, 0.000, 0.000, 0.000, 23:53:21.523, 1547020401523
46, -181.42, -189.15, -153.37, -221.93, 0.000, 0.000, 0.000, 23:53:21.523, 1547020401523
47, -174.98, -183.58, -146.31, -221.07, 0.000, 0.000, 0.000, 23:53:21.524, 1547020401524
47, -174.98, -183.58, -146.31, -221.07, 0.000, 0.000, 0.000, 23:53:21.524, 1547020401524
48, -175.37, -183.89, -150.30, -220.95, 0.000, 0.000, 0.000, 23:53:21.524, 1547020401524
48, -175.37, -183.89, -150.30, -220.95, 0.000, 0.000, 0.000, 23:53:21.524, 1547020401524
49, -170.12, -180.09, -144.86, -215.13, 0.000, 0.000, 0.000, 23:53:21.538, 1547020401538
49, -170.12, -180.09, -144.86, -215.13, 0.000, 0.000, 0.000, 23:53:21.538, 1547020401538
50, -165.57, -180.64, -135.37, -210.60, 0.000, 0.000, 0.000, 23:53:21.538, 1547020401538
50, -165.57, -180.64, -135.37, -210.60, 0.000, 0.000, 0.000, 23:53:21.538, 1547020401538
51, -179.83, -185.06, -148.32, -220.52, 0.000, 0.000, 0.000, 23:53:21.568, 1547020401568
51, -179.83, -185.06, -148.32, -220.52, 0.000, 0.000, 0.000, 23:53:21.568, 1547020401568
52, -174.04, -179.14, -136.58, -213.90, 0.000, 0.000, 0.000, 23:53:21.568, 1547020401568
52, -174.04, -179.14, -136.58, -213.90, 0.000, 0.000, 0.000, 23:53:21.568, 1547020401568
53, -172.20, -176.31, -147.42, -215.61, 0.000, 0.000, 0.000, 23:53:21.569, 1547020401569
53, -172.20, -176.31, -147.42, -215.61, 0.000, 0.000, 0.000, 23:53:21.569, 1547020401569
54, -171.29, -180.02, -146.45, -221.13, 0.000, 0.000, 0.000, 23:53:21.569, 1547020401569
54, -171.29, -180.02, -146.45, -221.13, 0.000, 0.000, 0.000, 23:53:21.569, 1547020401569
55, -170.93, -181.00, -142.85, -220.14, 0.000, 0.000, 0.000, 23:53:21.569, 1547020401569
55, -170.93, -181.00, -142.85, -220.14, 0.000, 0.000, 0.000, 23:53:21.569, 1547020401569
56, -174.77, -183.24, -142.11, -211.70, 0.000, 0.000, 0.000, 23:53:21.570, 1547020401570
56, -174.77, -183.24, -142.11, -211.70, 0.000, 0.000, 0.000, 23:53:21.570, 1547020401570
57, -172.01, -179.83, -126.52, -219.81, 0.000, 0.000, 0.000, 23:53:21.570, 1547020401570
57, -172.01, -179.83, -126.52, -219.81, 0.000, 0.000, 0.000, 23:53:21.570, 1547020401570
58, -171.92, -178.79, -137.03, -221.71, 0.000, 0.000, 0.000, 23:53:21.570, 1547020401570
58, -171.92, -178.79, -137.03, -221.71, 0.000, 0.000, 0.000, 23:53:21.570, 1547020401570
59, -172.62, -186.08, -148.90, -220.58, 0.000, 0.000, 0.000, 23:53:21.584, 1547020401584
59, -172.62, -186.08, -148.90, -220.58, 0.000, 0.000, 0.000, 23:53:21.584, 1547020401584
60, -171.67, -181.44, -155.81, -231.44, 0.000, 0.000, 0.000, 23:53:21.584, 1547020401584
60, -171.67, -181.44, -155.81, -231.44, 0.000, 0.000, 0.000, 23:53:21.584, 1547020401584
61, -172.18, -179.38, -152.74, -224.00, 0.000, 0.000, 0.000, 23:53:21.599, 1547020401599
61, -172.18, -179.38, -152.74, -224.00, 0.000, 0.000, 0.000, 23:53:21.599, 1547020401599
62, -176.72, -185.47, -152.89, -228.33, 0.000, 0.000, 0.000, 23:53:21.599, 1547020401599
62, -176.72, -185.47, -152.89, -228.33, 0.000, 0.000, 0.000, 23:53:21.599, 1547020401599
63, -176.69, -185.65, -155.18, -223.41, 0.000, 0.000, 0.000, 23:53:21.613, 1547020401613
63, -176.69, -185.65, -155.18, -223.41, 0.000, 0.000, 0.000, 23:53:21.613, 1547020401613
64, -179.65, -184.43, -148.45, -224.19, 0.000, 0.000, 0.000, 23:53:21.613, 1547020401613
64, -179.65, -184.43, -148.45, -224.19, 0.000, 0.000, 0.000, 23:53:21.613, 1547020401613
65, -178.69, -178.81, -156.17, -229.58, 0.000, 0.000, 0.000, 23:53:21.614, 1547020401614
65, -178.69, -178.81, -156.17, -229.58, 0.000, 0.000, 0.000, 23:53:21.614, 1547020401614
66, -175.36, -178.55, -144.28, -225.44, 0.000, 0.000, 0.000, 23:53:21.614, 1547020401614
