%OpenBCI Raw EEG Data
%36s
%Sample Rate = 200.0 Hz
%First Column = SampleIndex
%Last Column = Timestamp 
%Other Columns = EEG data in microvolts followed by Accel Data (in G) interleaved with Aux Data
0, -468.42, -63.92, 275.29, -3376.99, 0.000, 0.000, 0.000, 17:44:28.607
1, -443.44, -59.12, 229.55, -3438.82, 0.000, 0.000, 0.000, 17:44:28.621
2, -494.47, -90.53, 237.15, -3369.94, 0.000, 0.000, 0.000, 17:44:28.622
3, -515.58, -94.92, 253.93, -3243.61, 0.000, 0.000, 0.000, 17:44:28.636
4, -461.19, -60.30, 273.55, -3368.31, 0.000, 0.000, 0.000, 17:44:28.636
5, -430.11, -44.84, 262.99, -3454.42, 0.000, 0.000, 0.000, 17:44:28.637
6, -481.48, -85.23, 204.04, -3301.88, 0.000, 0.000, 0.000, 17:44:28.637
7, -508.69, -100.18, 247.56, -3283.27, 0.000, 0.000, 0.000, 17:44:28.651
8, -467.37, -68.35, 260.74, -3448.54, 0.000, 0.000, 0.000, 17:44:28.652
9, -424.49, -50.55, 233.39, -3428.06, 0.000, 0.000, 0.000, 17:44:28.666
10, -470.44, -73.47, 249.78, -3272.48, 0.000, 0.000, 0.000, 17:44:28.667
11, -508.14, -94.60, 263.52, -3207.61, 0.000, 0.000, 0.000, 17:44:28.667
12, -452.34, -61.44, 263.78, -3304.57, 0.000, 0.000, 0.000, 17:44:28.668
13, -434.03, -55.18, 232.45, -3424.15, 0.000, 0.000, 0.000, 17:44:28.682
14, -483.88, -82.38, 244.34, -3320.72, 0.000, 0.000, 0.000, 17:44:28.682
15, -505.66, -89.62, 268.12, -3217.51, 0.000, 0.000, 0.000, 17:44:28.697
16, -463.34, -62.39, 266.16, -3353.82, 0.000, 0.000, 0.000, 17:44:28.697
17, -432.17, -52.42, 257.84, -3450.45, 0.000, 0.000, 0.000, 17:44:28.697
18, -474.84, -83.39, 222.80, -3264.08, 0.000, 0.000, 0.000, 17:44:28.698
19, -488.38, -82.85, 268.46, -3189.27, 0.000, 0.000, 0.000, 17:44:28.711
20, -450.87, -57.53, 271.26, -3374.57, 0.000, 0.000, 0.000, 17:44:28.712
21, -428.94, -54.96, 242.49, -3380.99, 0.000, 0.000, 0.000, 17:44:28.726
22, -462.12, -69.59, 250.75, -3252.45, 0.000, 0.000, 0.000, 17:44:28.727
23, -496.54, -88.31, 271.80, -3237.04, 0.000, 0.000, 0.000, 17:44:28.727
24, -453.46, -57.51, 252.35, -3334.82, 0.000, 0.000, 0.000, 17:44:28.727
25, -431.33, -50.82, 230.81, -3416.10, 0.000, 0.000, 0.000, 17:44:28.741
26, -487.85, -92.18, 226.36, -3356.12, 0.000, 0.000, 0.000, 17:44:28.742
27, -499.19, -91.13, 261.31, -3218.13, 0.000, 0.000, 0.000, 17:44:28.756
28, -456.64, -63.50, 269.12, -3350.43, 0.000, 0.000, 0.000, 17:44:28.756
29, -431.79, -50.72, 250.10, -3436.49, 0.000, 0.000, 0.000, 17:44:28.765
30, -478.08, -82.61, 233.17, -3279.84, 0.000, 0.000, 0.000, 17:44:28.765
31, -515.75, -107.55, 245.75, -3240.07, 0.000, 0.000, 0.000, 17:44:28.772
32, -460.06, -64.99, 266.85, -3391.86, 0.000, 0.000, 0.000, 17:44:28.772
33, -423.18, -47.50, 237.03, -3385.11, 0.000, 0.000, 0.000, 17:44:28.786
34, -468.54, -76.61, 241.55, -3289.49, 0.000, 0.000, 0.000, 17:44:28.787
35, -510.72, -95.92, 264.68, -3252.26, 0.000, 0.000, 0.000, 17:44:28.787
36, -459.82, -68.07, 245.95, -3329.33, 0.000, 0.000, 0.000, 17:44:28.787
37, -424.79, -53.86, 230.69, -3410.68, 0.000, 0.000, 0.000, 17:44:28.801
38, -489.98, -86.73, 239.90, -3351.24, 0.000, 0.000, 0.000, 17:44:28.802
39, -508.43, -93.04, 264.96, -3210.58, 0.000, 0.000, 0.000, 17:44:28.816
40, -457.91, -61.73, 266.71, -3316.40, 0.000, 0.000, 0.000, 17:44:28.816
41, -427.63, -54.36, 244.29, -3394.16, 0.000, 0.000, 0.000, 17:44:28.817
42, -468.99, -74.19, 247.52, -3270.71, 0.000, 0.000, 0.000, 17:44:28.817
43, -496.47, -84.66, 272.32, -3217.58, 0.000, 0.000, 0.000, 17:44:28.832
44, -468.34, -68.92, 269.16, -3399.48, 0.000, 0.000, 0.000, 17:44:28.832
45, -421.80, -45.13, 245.29, -3377.41, 0.000, 0.000, 0.000, 17:44:28.846
46, -469.03, -80.73, 242.77, -3281.19, 0.000, 0.000, 0.000, 17:44:28.847
47, -512.56, -100.54, 262.43, -3273.31, 0.000, 0.000, 0.000, 17:44:28.847
48, -463.56, -69.87, 263.37, -3316.40, 0.000, 0.000, 0.000, 17:44:28.847
49, -422.16, -45.53, 263.67, -3422.90, 0.000, 0.000, 0.000, 17:44:28.876
50, -483.26, -86.50, 244.85, -3362.60, 0.000, 0.000, 0.000, 17:44:28.876
51, -512.43, -96.63, 259.01, -3217.56, 0.000, 0.000, 0.000, 17:44:28.877
52, -453.85, -58.19, 270.21, -3330.29, 0.000, 0.000, 0.000, 17:44:28.877
53, -423.53, -41.22, 248.27, -3399.79, 0.000, 0.000, 0.000, 17:44:28.878
54, -472.49, -78.67, 255.57, -3289.17, 0.000, 0.000, 0.000, 17:44:28.878
55, -501.49, -90.18, 274.11, -3248.27, 0.000, 0.000, 0.000, 17:44:28.891
56, -470.51, -64.16, 293.45, -3466.76, 0.000, 0.000, 0.000, 17:44:28.892
57, -424.00, -50.38, 232.74, -3351.96, 0.000, 0.000, 0.000, 17:44:28.906
58, -479.22, -88.83, 220.42, -3256.44, 0.000, 0.000, 0.000, 17:44:28.906
59, -506.24, -93.68, 254.74, -3220.06, 0.000, 0.000, 0.000, 17:44:28.907
60, -447.67, -55.33, 265.94, -3288.95, 0.000, 0.000, 0.000, 17:44:28.907
61, -424.36, -48.75, 225.58, -3403.63, 0.000, 0.000, 0.000, 17:44:28.921
62, -484.46, -86.01, 238.59, -3328.43, 0.000, 0.000, 0.000, 17:44:28.922
63, -507.16, -95.55, 257.10, -3243.56, 0.000, 0.000, 0.000, 17:44:28.936
64, -462.12, -66.61, 270.21, -3363.23, 0.000, 0.000, 0.000, 17:44:28.936
65, -443.58, -67.26, 219.63, -3461.03, 0.000, 0.000, 0.000, 17:44:28.937
66, -477.80, -84.22, 224.07, -3297.18, 0.000, 0.000, 0.000, 17:44:28.937
67, -518.63, -103.36, 256.11, -3285.16, 0.000, 0.000, 0.000, 17:44:28.952
68, -468.48, -67.58, 262.50, -3407.95, 0.000, 0.000, 0.000, 17:44:28.952
69, -421.86, -37.60, 253.80, -3401.68, 0.000, 0.000, 0.000, 17:44:28.966
70, -480.94, -83.30, 245.81, -3284.05, 0.000, 0.000, 0.000, 17:44:28.966
71, -510.55, -99.37, 252.82, -3266.01, 0.000, 0.000, 0.000, 17:44:28.967
72, -457.99, -63.66, 262.27, -3340.16, 0.000, 0.000, 0.000, 17:44:28.967
73, -434.44, -54.61, 240.00, -3434.27, 0.000, 0.000, 0.000, 17:44:28.981
74, -489.18, -90.55, 236.71, -3356.52, 0.000, 0.000, 0.000, 17:44:28.981
75, -517.51, -100.33, 254.62, -3273.87, 0.000, 0.000, 0.000, 17:44:28.996
76, -457.82, -64.24, 265.16, -3371.91, 0.000, 0.000, 0.000, 17:44:28.996
77, -434.85, -55.48, 247.56, -3433.10, 0.000, 0.000, 0.000, 17:44:28.997
78, -480.13, -84.08, 232.56, -3285.35, 0.000, 0.000, 0.000, 17:44:28.997
79, -491.37, -82.29, 261.85, -3233.38, 0.000, 0.000, 0.000, 17:44:29.011
80, -450.53, -57.77, 265.26, -3380.03, 0.000, 0.000, 0.000, 17:44:29.012
81, -436.20, -52.07, 227.02, -3416.37, 0.000, 0.000, 0.000, 17:44:29.026
82, -488.85, -90.06, 240.54, -3297.27, 0.000, 0.000, 0.000, 17:44:29.026
83, -514.13, -104.21, 254.73, -3256.89, 0.000, 0.000, 0.000, 17:44:29.027
84, -464.31, -67.66, 263.41, -3325.09, 0.000, 0.000, 0.000, 17:44:29.027
85, -437.51, -58.09, 235.75, -3402.69, 0.000, 0.000, 0.000, 17:44:29.041
86, -482.93, -82.99, 244.38, -3338.84, 0.000, 0.000, 0.000, 17:44:29.041
87, -514.75, -98.91, 257.18, -3220.76, 0.000, 0.000, 0.000, 17:44:29.056
88, -474.42, -76.75, 254.32, -3367.00, 0.000, 0.000, 0.000, 17:44:29.056
89, -438.11, -54.11, 247.11, -3442.98, 0.000, 0.000, 0.000, 17:44:29.057
90, -478.91, -86.89, 249.63, -3261.54, 0.000, 0.000, 0.000, 17:44:29.057
91, -512.50, -102.02, 249.47, -3224.88, 0.000, 0.000, 0.000, 17:44:29.071
92, -473.99, -77.00, 260.13, -3398.62, 0.000, 0.000, 0.000, 17:44:29.071
93, -441.49, -66.76, 229.98, -3393.37, 0.000, 0.000, 0.000, 17:44:29.086
94, -479.11, -85.73, 244.48, -3268.91, 0.000, 0.000, 0.000, 17:44:29.086
95, -520.38, -102.88, 267.94, -3246.32, 0.000, 0.000, 0.000, 17:44:29.087
96, -465.83, -65.31, 251.08, -3317.35, 0.000, 0.000, 0.000, 17:44:29.087
97, -438.22, -58.80, 235.17, -3408.76, 0.000, 0.000, 0.000, 17:44:29.101
98, -486.62, -80.43, 251.04, -3333.38, 0.000, 0.000, 0.000, 17:44:29.102
99, -509.68, -96.00, 266.17, -3196.38, 0.000, 0.000, 0.000, 17:44:29.116
100, -454.45, -60.97, 260.65, -3309.37, 0.000, 0.000, 0.000, 17:44:29.116
101, -435.36, -52.30, 239.46, -3410.50, 0.000, 0.000, 0.000, 17:44:29.117
102, -476.31, -79.15, 242.22, -3271.59, 0.000, 0.000, 0.000, 17:44:29.117
103, -500.04, -86.68, 275.60, -3242.20, 0.000, 0.000, 0.000, 17:44:29.131
104, -470.34, -67.19, 268.12, -3411.75, 0.000, 0.000, 0.000, 17:44:29.131
105, -431.81, -52.20, 242.36, -3412.46, 0.000, 0.000, 0.000, 17:44:29.146
106, -487.59, -87.42, 238.79, -3304.82, 0.000, 0.000, 0.000, 17:44:29.146
107, -506.62, -85.59, 290.51, -3237.88, 0.000, 0.000, 0.000, 17:44:29.147
108, -458.07, -61.37, 249.29, -3313.17, 0.000, 0.000, 0.000, 17:44:29.147
109, -422.91, -44.90, 236.67, -3429.44, 0.000, 0.000, 0.000, 17:44:29.161
110, -490.61, -85.75, 244.62, -3367.66, 0.000, 0.000, 0.000, 17:44:29.162
111, -513.32, -94.94, 259.82, -3246.09, 0.000, 0.000, 0.000, 17:44:29.191
112, -457.34, -61.81, 267.38, -3335.93, 0.000, 0.000, 0.000, 17:44:29.191
113, -433.54, -50.61, 237.56, -3437.64, 0.000, 0.000, 0.000, 17:44:29.192
114, -487.89, -88.76, 224.36, -3290.16, 0.000, 0.000, 0.000, 17:44:29.192
115, -511.55, -95.23, 263.60, -3206.37, 0.000, 0.000, 0.000, 17:44:29.192
116, -456.67, -64.57, 266.43, -3291.98, 0.000, 0.000, 0.000, 17:44:29.192
117, -430.10, -61.77, 234.79, -3357.73, 0.000, 0.000, 0.000, 17:44:29.193
118, -486.36, -91.62, 224.40, -3317.18, 0.000, 0.000, 0.000, 17:44:29.194
119, -538.35, -116.06, 267.96, -3417.34, 0.000, 0.000, 0.000, 17:44:29.207
120, -466.11, -72.76, 256.65, -3329.24, 0.000, 0.000, 0.000, 17:44:29.207
121, -432.30, -49.79, 240.46, -3361.46, 0.000, 0.000, 0.000, 17:44:29.221
122, -484.97, -89.47, 241.23, -3284.83, 0.000, 0.000, 0.000, 17:44:29.221
123, -507.30, -96.23, 260.73, -3178.91, 0.000, 0.000, 0.000, 17:44:29.236
124, -474.95, -78.15, 248.00, -3329.63, 0.000, 0.000, 0.000, 17:44:29.236
125, -430.66, -46.94, 243.49, -3382.34, 0.000, 0.000, 0.000, 17:44:29.237
126, -467.12, -68.49, 245.51, -3254.99, 0.000, 0.000, 0.000, 17:44:29.237
127, -506.27, -89.75, 255.90, -3250.76, 0.000, 0.000, 0.000, 17:44:29.251
128, -464.43, -65.71, 263.31, -3418.43, 0.000, 0.000, 0.000, 17:44:29.252
129, -430.27, -54.02, 235.66, -3408.73, 0.000, 0.000, 0.000, 17:44:29.266
130, -481.45, -87.04, 239.75, -3288.45, 0.000, 0.000, 0.000, 17:44:29.267
131, -514.93, -97.86, 259.86, -3286.42, 0.000, 0.000, 0.000, 17:44:29.267
132, -463.30, -67.32, 257.52, -3334.43, 0.000, 0.000, 0.000, 17:44:29.267
133, -433.41, -54.98, 221.12, -3435.56, 0.000, 0.000, 0.000, 17:44:29.281
134, -487.37, -81.00, 240.11, -3346.25, 0.000, 0.000, 0.000, 17:44:29.281
135, -513.15, -97.67, 253.56, -3204.47, 0.000, 0.000, 0.000, 17:44:29.296
136, -454.80, -58.77, 268.01, -3320.59, 0.000, 0.000, 0.000, 17:44:29.297
137, -440.10, -54.32, 233.62, -3421.79, 0.000, 0.000, 0.000, 17:44:29.297
138, -475.10, -82.50, 228.53, -3256.05, 0.000, 0.000, 0.000, 17:44:29.297
139, -509.58, -91.20, 266.91, -3247.97, 0.000, 0.000, 0.000, 17:44:29.311
140, -469.67, -69.07, 258.32, -3380.16, 0.000, 0.000, 0.000, 17:44:29.312
141, -432.09, -53.06, 235.69, -3399.68, 0.000, 0.000, 0.000, 17:44:29.326
142, -481.97, -83.47, 233.95, -3315.46, 0.000, 0.000, 0.000, 17:44:29.326
143, -511.96, -97.94, 271.14, -3276.00, 0.000, 0.000, 0.000, 17:44:29.327
144, -465.50, -65.80, 258.55, -3330.78, 0.000, 0.000, 0.000, 17:44:29.327
145, -430.40, -53.09, 246.83, -3453.74, 0.000, 0.000, 0.000, 17:44:29.341
146, -493.52, -88.66, 246.16, -3410.83, 0.000, 0.000, 0.000, 17:44:29.342
147, -512.84, -91.86, 266.51, -3246.10, 0.000, 0.000, 0.000, 17:44:29.356
148, -453.25, -58.11, 270.08, -3342.45, 0.000, 0.000, 0.000, 17:44:29.356
149, -417.08, -40.68, 247.14, -3438.32, 0.000, 0.000, 0.000, 17:44:29.357
150, -451.09, -56.38, 239.39, -3258.94, 0.000, 0.000, 0.000, 17:44:29.357
151, -475.14, -66.55, 270.73, -3211.44, 0.000, 0.000, 0.000, 17:44:29.371
152, -432.73, -30.62, 284.02, -3378.02, 0.000, 0.000, 0.000, 17:44:29.371
153, -401.36, -26.54, 251.76, -3397.87, 0.000, 0.000, 0.000, 17:44:29.386
154, -450.62, -55.61, 241.82, -3260.39, 0.000, 0.000, 0.000, 17:44:29.387
155, -472.40, -56.03, 268.89, -3230.44, 0.000, 0.000, 0.000, 17:44:29.387
156, -414.32, -26.93, 269.00, -3283.75, 0.000, 0.000, 0.000, 17:44:29.388
157, -386.83, -11.37, 247.59, -3388.17, 0.000, 0.000, 0.000, 17:44:29.401
158, -460.59, -57.81, 252.19, -3348.03, 0.000, 0.000, 0.000, 17:44:29.402
159, -492.22, -71.86, 265.44, -3220.47, 0.000, 0.000, 0.000, 17:44:29.416
160, -426.78, -34.06, 273.40, -3301.61, 0.000, 0.000, 0.000, 17:44:29.416
161, -398.72, -26.63, 241.71, -3414.49, 0.000, 0.000, 0.000, 17:44:29.417
162, -461.78, -67.45, 231.06, -3281.84, 0.000, 0.000, 0.000, 17:44:29.417
163, -499.30, -81.94, 268.96, -3256.70, 0.000, 0.000, 0.000, 17:44:29.431
164, -463.64, -62.01, 273.01, -3387.84, 0.000, 0.000, 0.000, 17:44:29.432
165, -420.25, -44.03, 232.68, -3384.44, 0.000, 0.000, 0.000, 17:44:29.446
166, -476.95, -76.58, 236.51, -3282.90, 0.000, 0.000, 0.000, 17:44:29.446
167, -511.41, -93.39, 272.25, -3253.31, 0.000, 0.000, 0.000, 17:44:29.447
168, -460.91, -64.71, 264.54, -3298.57, 0.000, 0.000, 0.000, 17:44:29.447
169, -428.58, -61.46, 236.76, -3387.72, 0.000, 0.000, 0.000, 17:44:29.461
170, -493.44, -99.79, 240.76, -3335.15, 0.000, 0.000, 0.000, 17:44:29.462
171, -516.46, -102.62, 252.67, -3227.42, 0.000, 0.000, 0.000, 17:44:29.476
172, -463.01, -67.01, 266.28, -3318.30, 0.000, 0.000, 0.000, 17:44:29.476
173, -445.58, -61.84, 236.07, -3420.94, 0.000, 0.000, 0.000, 17:44:29.477
174, -489.04, -90.92, 237.36, -3280.49, 0.000, 0.000, 0.000, 17:44:29.477
175, -523.92, -105.21, 271.26, -3242.04, 0.000, 0.000, 0.000, 17:44:29.491
176, -481.38, -83.11, 268.97, -3395.65, 0.000, 0.000, 0.000, 17:44:29.492
177, -448.20, -72.26, 232.78, -3388.56, 0.000, 0.000, 0.000, 17:44:29.506
178, -493.04, -100.52, 230.62, -3296.96, 0.000, 0.000, 0.000, 17:44:29.507
179, -517.12, -106.85, 275.03, -3240.29, 0.000, 0.000, 0.000, 17:44:29.507
180, -474.58, -82.49, 268.45, -3324.38, 0.000, 0.000, 0.000, 17:44:29.507
181, -458.50, -78.54, 230.53, -3427.56, 0.000, 0.000, 0.000, 17:44:29.521
182, -504.82, -105.53, 243.84, -3374.83, 0.000, 0.000, 0.000, 17:44:29.522
183, -525.49, -111.88, 254.84, -3252.91, 0.000, 0.000, 0.000, 17:44:29.537
184, -467.41, -72.74, 272.31, -3356.62, 0.000, 0.000, 0.000, 17:44:29.537
185, -451.10, -68.77, 238.87, -3451.69, 0.000, 0.000, 0.000, 17:44:29.537
186, -483.20, -83.69, 239.98, -3277.66, 0.000, 0.000, 0.000, 17:44:29.537
187, -524.64, -108.60, 261.06, -3263.75, 0.000, 0.000, 0.000, 17:44:29.551
188, -477.70, -81.02, 274.27, -3435.68, 0.000, 0.000, 0.000, 17:44:29.552
189, -447.96, -68.32, 234.30, -3437.13, 0.000, 0.000, 0.000, 17:44:29.566
190, -488.50, -90.89, 247.06, -3269.83, 0.000, 0.000, 0.000, 17:44:29.566
191, -516.67, -104.19, 267.78, -3232.25, 0.000, 0.000, 0.000, 17:44:29.581
192, -462.67, -69.51, 267.29, -3285.43, 0.000, 0.000, 0.000, 17:44:29.581
193, -429.34, -53.75, 241.09, -3372.36, 0.000, 0.000, 0.000, 17:44:29.582
194, -498.68, -101.86, 226.23, -3337.87, 0.000, 0.000, 0.000, 17:44:29.582
195, -508.60, -94.08, 268.70, -3178.88, 0.000, 0.000, 0.000, 17:44:29.596
196, -463.29, -71.92, 255.27, -3322.04, 0.000, 0.000, 0.000, 17:44:29.596
197, -440.53, -65.47, 242.16, -3467.98, 0.000, 0.000, 0.000, 17:44:29.597
198, -476.67, -83.07, 239.93, -3257.47, 0.000, 0.000, 0.000, 17:44:29.597
199, -513.70, -104.88, 255.65, -3221.45, 0.000, 0.000, 0.000, 17:44:29.611
200, -471.53, -73.32, 266.06, -3376.91, 0.000, 0.000, 0.000, 17:44:29.611
0, -437.26, -56.38, 240.54, -3397.14, 0.000, 0.000, 0.000, 17:44:29.612
1, -477.57, -86.28, 243.09, -3280.41, 0.000, 0.000, 0.000, 17:44:29.626
2, -526.55, -104.27, 272.23, -3316.96, 0.000, 0.000, 0.000, 17:44:29.626
3, -467.18, -71.39, 265.32, -3337.89, 0.000, 0.000, 0.000, 17:44:29.641
4, -439.34, -57.93, 234.95, -3417.93, 0.000, 0.000, 0.000, 17:44:29.641
5, -492.19, -89.08, 229.00, -3347.23, 0.000, 0.000, 0.000, 17:44:29.642
6, -510.81, -100.10, 263.58, -3232.15, 0.000, 0.000, 0.000, 17:44:29.642
7, -474.59, -75.04, 260.36, -3353.44, 0.000, 0.000, 0.000, 17:44:29.656
8, -441.69, -55.34, 244.75, -3468.67, 0.000, 0.000, 0.000, 17:44:29.657
9, -480.41, -80.53, 236.60, -3284.22, 0.000, 0.000, 0.000, 17:44:29.671
10, -507.23, -92.55, 265.24, -3207.66, 0.000, 0.000, 0.000, 17:44:29.671
11, -462.65, -67.54, 271.60, -3358.35, 0.000, 0.000, 0.000, 17:44:29.672
12, -437.49, -58.07, 244.18, -3354.75, 0.000, 0.000, 0.000, 17:44:29.672
13, -486.48, -96.17, 237.32, -3287.39, 0.000, 0.000, 0.000, 17:44:29.687
14, -517.37, -105.41, 274.30, -3295.67, 0.000, 0.000, 0.000, 17:44:29.687
15, -469.73, -74.60, 269.59, -3359.52, 0.000, 0.000, 0.000, 17:44:29.701
16, -433.27, -57.53, 231.25, -3423.62, 0.000, 0.000, 0.000, 17:44:29.701
17, -483.36, -90.68, 236.40, -3343.48, 0.000, 0.000, 0.000, 17:44:29.702
18, -497.12, -89.25, 272.48, -3211.84, 0.000, 0.000, 0.000, 17:44:29.702
19, -459.26, -65.47, 263.03, -3362.78, 0.000, 0.000, 0.000, 17:44:29.716
20, -434.81, -48.00, 260.94, -3488.45, 0.000, 0.000, 0.000, 17:44:29.716
21, -477.25, -78.77, 238.30, -3253.73, 0.000, 0.000, 0.000, 17:44:29.731
22, -499.00, -93.24, 266.68, -3197.81, 0.000, 0.000, 0.000, 17:44:29.731
23, -472.07, -82.95, 268.98, -3361.53, 0.000, 0.000, 0.000, 17:44:29.732
24, -423.50, -43.04, 239.49, -3354.31, 0.000, 0.000, 0.000, 17:44:29.732
25, -479.89, -80.30, 226.44, -3283.40, 0.000, 0.000, 0.000, 17:44:29.746
26, -500.20, -80.78, 277.75, -3251.30, 0.000, 0.000, 0.000, 17:44:29.747
27, -447.05, -52.13, 270.41, -3291.89, 0.000, 0.000, 0.000, 17:44:29.761
28, -428.06, -51.71, 240.19, -3403.51, 0.000, 0.000, 0.000, 17:44:29.761
29, -488.25, -89.41, 241.82, -3339.66, 0.000, 0.000, 0.000, 17:44:29.762
30, -517.26, -100.12, 259.01, -3210.18, 0.000, 0.000, 0.000, 17:44:29.762
31, -473.92, -72.75, 258.42, -3386.50, 0.000, 0.000, 0.000, 17:44:29.776
32, -440.15, -53.35, 253.22, -3457.35, 0.000, 0.000, 0.000, 17:44:29.777
33, -479.43, -82.03, 245.32, -3296.21, 0.000, 0.000, 0.000, 17:44:29.791
34, -516.86, -101.66, 261.95, -3235.53, 0.000, 0.000, 0.000, 17:44:29.791
35, -478.20, -76.00, 260.09, -3382.67, 0.000, 0.000, 0.000, 17:44:29.792
36, -446.14, -59.11, 242.86, -3402.61, 0.000, 0.000, 0.000, 17:44:29.792
37, -470.94, -83.85, 245.76, -3307.09, 0.000, 0.000, 0.000, 17:44:29.806
38, -517.75, -102.34, 254.37, -3324.80, 0.000, 0.000, 0.000, 17:44:29.807
39, -459.25, -70.97, 265.11, -3359.40, 0.000, 0.000, 0.000, 17:44:29.836
40, -443.39, -65.46, 231.33, -3396.79, 0.000, 0.000, 0.000, 17:44:29.836
41, -475.43, -77.19, 247.77, -3336.05, 0.000, 0.000, 0.000, 17:44:29.837
42, -493.75, -89.96, 267.36, -3202.99, 0.000, 0.000, 0.000, 17:44:29.837
43, -462.79, -72.94, 268.61, -3364.18, 0.000, 0.000, 0.000, 17:44:29.837
44, -431.84, -53.16, 250.62, -3397.34, 0.000, 0.000, 0.000, 17:44:29.837
45, -488.99, -93.96, 240.02, -3300.66, 0.000, 0.000, 0.000, 17:44:29.838
46, -520.01, -102.76, 257.95, -3237.25, 0.000, 0.000, 0.000, 17:44:29.838
47, -475.40, -68.24, 296.68, -3504.86, 0.000, 0.000, 0.000, 17:44:29.852
48, -424.32, -48.74, 252.43, -3419.76, 0.000, 0.000, 0.000, 17:44:29.852
49, -474.55, -76.24, 248.74, -3280.41, 0.000, 0.000, 0.000, 17:44:29.867
50, -517.93, -99.20, 261.44, -3281.68, 0.000, 0.000, 0.000, 17:44:29.867
51, -463.03, -66.94, 272.32, -3339.68, 0.000, 0.000, 0.000, 17:44:29.881
52, -422.88, -52.50, 246.73, -3399.77, 0.000, 0.000, 0.000, 17:44:29.881
53, -474.23, -78.22, 246.17, -3292.91, 0.000, 0.000, 0.000, 17:44:29.882
54, -496.51, -86.77, 273.35, -3183.41, 0.000, 0.000, 0.000, 17:44:29.882
55, -452.49, -61.75, 254.10, -3317.41, 0.000, 0.000, 0.000, 17:44:29.896
56, -430.65, -52.51, 221.64, -3437.90, 0.000, 0.000, 0.000, 17:44:29.897
57, -457.61, -67.43, 241.63, -3253.60, 0.000, 0.000, 0.000, 17:44:29.911
58, -504.90, -94.62, 258.66, -3222.74, 0.000, 0.000, 0.000, 17:44:29.911
59, -460.43, -65.92, 267.04, -3383.71, 0.000, 0.000, 0.000, 17:44:29.912
60, -431.14, -54.71, 222.31, -3405.95, 0.000, 0.000, 0.000, 17:44:29.912
61, -483.76, -88.92, 232.34, -3327.36, 0.000, 0.000, 0.000, 17:44:29.926
62, -517.19, -100.17, 275.28, -3304.56, 0.000, 0.000, 0.000, 17:44:29.927
63, -465.38, -68.50, 274.68, -3327.86, 0.000, 0.000, 0.000, 17:44:29.941
64, -435.22, -59.66, 247.12, -3432.49, 0.000, 0.000, 0.000, 17:44:29.941
65, -500.86, -102.17, 226.10, -3373.51, 0.000, 0.000, 0.000, 17:44:29.942
66, -505.48, -95.82, 268.29, -3248.25, 0.000, 0.000, 0.000, 17:44:29.942
67, -460.28, -61.84, 272.71, -3340.27, 0.000, 0.000, 0.000, 17:44:29.956
68, -431.90, -48.97, 263.35, -3451.91, 0.000, 0.000, 0.000, 17:44:29.957
69, -486.26, -93.38, 229.69, -3258.57, 0.000, 0.000, 0.000, 17:44:29.971
70, -513.13, -107.54, 273.29, -3230.31, 0.000, 0.000, 0.000, 17:44:29.971
71, -484.95, -85.65, 265.46, -3381.40, 0.000, 0.000, 0.000, 17:44:29.972
72, -428.57, -44.25, 231.14, -3362.79, 0.000, 0.000, 0.000, 17:44:29.972
73, -476.70, -80.28, 237.91, -3263.45, 0.000, 0.000, 0.000, 17:44:29.986
74, -511.00, -93.51, 257.27, -3258.49, 0.000, 0.000, 0.000, 17:44:29.987
75, -468.43, -70.62, 260.65, -3334.44, 0.000, 0.000, 0.000, 17:44:30.001
76, -439.13, -62.36, 229.99, -3421.76, 0.000, 0.000, 0.000, 17:44:30.001
77, -488.33, -89.30, 244.08, -3345.99, 0.000, 0.000, 0.000, 17:44:30.002
78, -511.37, -100.78, 266.62, -3215.09, 0.000, 0.000, 0.000, 17:44:30.002
79, -462.61, -66.25, 267.63, -3354.83, 0.000, 0.000, 0.000, 17:44:30.016
80, -444.77, -62.33, 241.01, -3484.42, 0.000, 0.000, 0.000, 17:44:30.017
81, -483.13, -87.23, 238.85, -3315.60, 0.000, 0.000, 0.000, 17:44:30.031
82, -511.02, -95.46, 267.40, -3228.43, 0.000, 0.000, 0.000, 17:44:30.031
83, -476.81, -72.56, 265.61, -3400.02, 0.000, 0.000, 0.000, 17:44:30.032
84, -435.52, -60.47, 231.13, -3409.58, 0.000, 0.000, 0.000, 17:44:30.032
85, -485.60, -93.50, 225.96, -3295.59, 0.000, 0.000, 0.000, 17:44:30.046
86, -524.46, -111.31, 252.23, -3276.58, 0.000, 0.000, 0.000, 17:44:30.046
87, -465.85, -66.70, 264.40, -3337.04, 0.000, 0.000, 0.000, 17:44:30.061
88, -432.08, -54.68, 234.16, -3428.61, 0.000, 0.000, 0.000, 17:44:30.061
89, -491.96, -91.76, 224.70, -3328.77, 0.000, 0.000, 0.000, 17:44:30.062
90, -502.42, -91.96, 258.06, -3188.44, 0.000, 0.000, 0.000, 17:44:30.062
91, -461.36, -69.71, 261.05, -3340.23, 0.000, 0.000, 0.000, 17:44:30.076
92, -439.96, -62.46, 243.76, -3455.83, 0.000, 0.000, 0.000, 17:44:30.077
93, -479.85, -84.42, 239.16, -3258.99, 0.000, 0.000, 0.000, 17:44:30.091
94, -508.70, -99.39, 264.07, -3190.29, 0.000, 0.000, 0.000, 17:44:30.092
95, -471.16, -74.32, 263.38, -3377.80, 0.000, 0.000, 0.000, 17:44:30.092
96, -439.48, -60.70, 236.12, -3389.92, 0.000, 0.000, 0.000, 17:44:30.092
97, -490.58, -97.06, 232.83, -3285.46, 0.000, 0.000, 0.000, 17:44:30.106
98, -519.17, -107.60, 260.95, -3249.00, 0.000, 0.000, 0.000, 17:44:30.107
99, -463.37, -67.07, 268.24, -3319.40, 0.000, 0.000, 0.000, 17:44:30.121
100, -437.71, -62.25, 227.36, -3423.66, 0.000, 0.000, 0.000, 17:44:30.121
101, -486.06, -89.34, 228.83, -3326.95, 0.000, 0.000, 0.000, 17:44:30.122
102, -519.26, -107.79, 256.05, -3209.27, 0.000, 0.000, 0.000, 17:44:30.122
103, -462.53, -68.61, 270.63, -3354.41, 0.000, 0.000, 0.000, 17:44:30.151
104, -441.91, -61.59, 244.68, -3464.20, 0.000, 0.000, 0.000, 17:44:30.151
105, -487.49, -95.12, 236.97, -3302.44, 0.000, 0.000, 0.000, 17:44:30.152
106, -510.71, -99.48, 264.53, -3215.74, 0.000, 0.000, 0.000, 17:44:30.152
107, -465.24, -76.83, 257.47, -3341.43, 0.000, 0.000, 0.000, 17:44:30.153
108, -431.04, -55.75, 236.81, -3391.03, 0.000, 0.000, 0.000, 17:44:30.153
109, -481.39, -84.79, 227.94, -3307.84, 0.000, 0.000, 0.000, 17:44:30.166
110, -531.62, -115.96, 261.65, -3358.39, 0.000, 0.000, 0.000, 17:44:30.167
111, -453.31, -64.82, 267.60, -3313.67, 0.000, 0.000, 0.000, 17:44:30.197
112, -425.87, -52.85, 238.92, -3383.65, 0.000, 0.000, 0.000, 17:44:30.197
113, -456.71, -68.11, 249.42, -3271.72, 0.000, 0.000, 0.000, 17:44:30.198
114, -506.72, -98.33, 265.63, -3196.62, 0.000, 0.000, 0.000, 17:44:30.198
115, -455.52, -65.23, 257.48, -3326.49, 0.000, 0.000, 0.000, 17:44:30.198
116, -435.79, -56.85, 236.55, -3453.94, 0.000, 0.000, 0.000, 17:44:30.198
117, -471.85, -79.49, 232.14, -3251.47, 0.000, 0.000, 0.000, 17:44:30.198
118, -508.28, -103.16, 256.64, -3203.94, 0.000, 0.000, 0.000, 17:44:30.198
119, -481.22, -76.99, 273.53, -3466.99, 0.000, 0.000, 0.000, 17:44:30.211
120, -428.77, -58.18, 232.79, -3379.26, 0.000, 0.000, 0.000, 17:44:30.211
121, -479.36, -86.58, 237.31, -3265.94, 0.000, 0.000, 0.000, 17:44:30.226
122, -517.68, -98.48, 264.68, -3266.14, 0.000, 0.000, 0.000, 17:44:30.226
123, -464.71, -64.93, 257.30, -3304.24, 0.000, 0.000, 0.000, 17:44:30.241
124, -425.45, -49.36, 241.80, -3393.52, 0.000, 0.000, 0.000, 17:44:30.241
125, -482.60, -84.74, 222.46, -3322.98, 0.000, 0.000, 0.000, 17:44:30.242
126, -505.10, -93.26, 249.85, -3211.24, 0.000, 0.000, 0.000, 17:44:30.242
127, -472.59, -73.91, 262.43, -3321.98, 0.000, 0.000, 0.000, 17:44:30.256
128, -439.06, -61.87, 239.09, -3454.78, 0.000, 0.000, 0.000, 17:44:30.256
129, -480.48, -83.78, 231.91, -3265.07, 0.000, 0.000, 0.000, 17:44:30.271
130, -511.78, -105.19, 256.84, -3202.77, 0.000, 0.000, 0.000, 17:44:30.271
131, -473.55, -77.10, 254.75, -3358.34, 0.000, 0.000, 0.000, 17:44:30.272
132, -425.26, -52.47, 235.23, -3377.06, 0.000, 0.000, 0.000, 17:44:30.272
133, -483.01, -94.22, 231.73, -3310.71, 0.000, 0.000, 0.000, 17:44:30.286
134, -509.17, -101.89, 269.81, -3278.59, 0.000, 0.000, 0.000, 17:44:30.287
135, -453.50, -63.53, 270.32, -3312.27, 0.000, 0.000, 0.000, 17:44:30.301
136, -432.04, -55.82, 239.78, -3453.74, 0.000, 0.000, 0.000, 17:44:30.301
137, -480.69, -86.64, 248.37, -3340.37, 0.000, 0.000, 0.000, 17:44:30.302
138, -505.97, -96.38, 257.55, -3243.73, 0.000, 0.000, 0.000, 17:44:30.302
139, -456.23, -62.09, 258.70, -3320.77, 0.000, 0.000, 0.000, 17:44:30.317
140, -437.93, -62.98, 236.96, -3462.06, 0.000, 0.000, 0.000, 17:44:30.317
141, -472.09, -79.78, 243.05, -3308.98, 0.000, 0.000, 0.000, 17:44:30.331
142, -508.67, -96.16, 252.50, -3236.62, 0.000, 0.000, 0.000, 17:44:30.331
143, -474.57, -79.03, 257.85, -3394.77, 0.000, 0.000, 0.000, 17:44:30.332
144, -431.04, -55.90, 242.86, -3388.79, 0.000, 0.000, 0.000, 17:44:30.332
145, -471.16, -81.61, 233.37, -3285.40, 0.000, 0.000, 0.000, 17:44:30.346
146, -514.66, -105.74, 263.85, -3265.55, 0.000, 0.000, 0.000, 17:44:30.347
147, -462.06, -75.61, 251.44, -3329.64, 0.000, 0.000, 0.000, 17:44:30.361
148, -438.84, -66.30, 228.75, -3390.81, 0.000, 0.000, 0.000, 17:44:30.361
149, -482.96, -89.61, 243.91, -3337.15, 0.000, 0.000, 0.000, 17:44:30.362
150, -513.49, -101.90, 259.95, -3216.26, 0.000, 0.000, 0.000, 17:44:30.362
151, -463.13, -72.25, 270.06, -3355.61, 0.000, 0.000, 0.000, 17:44:30.376
152, -450.43, -73.95, 248.23, -3466.15, 0.000, 0.000, 0.000, 17:44:30.377
153, -479.79, -87.46, 244.55, -3274.46, 0.000, 0.000, 0.000, 17:44:30.391
154, -512.04, -101.29, 258.67, -3253.82, 0.000, 0.000, 0.000, 17:44:30.391
155, -464.71, -71.19, 272.58, -3381.33, 0.000, 0.000, 0.000, 17:44:30.392
156, -429.15, -60.13, 240.46, -3406.28, 0.000, 0.000, 0.000, 17:44:30.392
157, -473.96, -85.29, 232.84, -3307.41, 0.000, 0.000, 0.000, 17:44:30.406
158, -521.35, -100.55, 270.35, -3318.48, 0.000, 0.000, 0.000, 17:44:30.406
159, -463.31, -68.05, 263.55, -3339.31, 0.000, 0.000, 0.000, 17:44:30.421
160, -434.38, -59.54, 228.57, -3412.83, 0.000, 0.000, 0.000, 17:44:30.421
161, -472.00, -79.22, 243.72, -3329.44, 0.000, 0.000, 0.000, 17:44:30.422
162, -508.03, -99.28, 252.77, -3221.69, 0.000, 0.000, 0.000, 17:44:30.422
163, -466.44, -66.51, 261.55, -3342.77, 0.000, 0.000, 0.000, 17:44:30.436
164, -435.45, -57.70, 229.14, -3451.25, 0.000, 0.000, 0.000, 17:44:30.437
165, -477.60, -82.81, 235.43, -3283.81, 0.000, 0.000, 0.000, 17:44:30.451
166, -521.85, -111.48, 232.51, -3254.88, 0.000, 0.000, 0.000, 17:44:30.451
167, -468.33, -77.75, 267.66, -3384.90, 0.000, 0.000, 0.000, 17:44:30.452
168, -433.66, -57.46, 252.49, -3371.59, 0.000, 0.000, 0.000, 17:44:30.452
169, -478.22, -84.40, 232.25, -3279.05, 0.000, 0.000, 0.000, 17:44:30.466
170, -511.10, -92.42, 270.54, -3280.96, 0.000, 0.000, 0.000, 17:44:30.467
171, -457.27, -57.93, 270.79, -3306.38, 0.000, 0.000, 0.000, 17:44:30.481
172, -434.70, -57.02, 235.10, -3395.16, 0.000, 0.000, 0.000, 17:44:30.481
173, -487.06, -91.74, 240.51, -3311.71, 0.000, 0.000, 0.000, 17:44:30.482
174, -507.94, -101.13, 261.71, -3193.05, 0.000, 0.000, 0.000, 17:44:30.482
175, -482.76, -82.02, 256.40, -3342.91, 0.000, 0.000, 0.000, 17:44:30.496
176, -434.14, -53.36, 254.77, -3419.84, 0.000, 0.000, 0.000, 17:44:30.496
177, -470.43, -80.31, 237.86, -3270.47, 0.000, 0.000, 0.000, 17:44:30.511
178, -506.59, -99.55, 263.20, -3204.61, 0.000, 0.000, 0.000, 17:44:30.511
179, -468.65, -73.01, 254.95, -3364.60, 0.000, 0.000, 0.000, 17:44:30.512
180, -426.26, -52.74, 240.65, -3371.34, 0.000, 0.000, 0.000, 17:44:30.512
181, -476.51, -84.32, 236.82, -3299.07, 0.000, 0.000, 0.000, 17:44:30.526
182, -520.50, -100.46, 263.55, -3286.18, 0.000, 0.000, 0.000, 17:44:30.526
183, -463.27, -69.14, 259.91, -3336.35, 0.000, 0.000, 0.000, 17:44:30.541
184, -418.87, -42.37, 247.17, -3387.65, 0.000, 0.000, 0.000, 17:44:30.541
185, -471.54, -83.61, 237.98, -3301.16, 0.000, 0.000, 0.000, 17:44:30.542
186, -505.21, -93.06, 253.54, -3202.10, 0.000, 0.000, 0.000, 17:44:30.542
187, -462.74, -66.64, 261.36, -3344.86, 0.000, 0.000, 0.000, 17:44:30.556
188, -443.43, -67.06, 244.70, -3478.22, 0.000, 0.000, 0.000, 17:44:30.557
189, -472.25, -75.61, 249.35, -3285.88, 0.000, 0.000, 0.000, 17:44:30.571
190, -507.55, -94.34, 259.65, -3222.17, 0.000, 0.000, 0.000, 17:44:30.571
191, -476.12, -75.56, 254.15, -3380.74, 0.000, 0.000, 0.000, 17:44:30.572
192, -429.84, -57.59, 232.19, -3374.01, 0.000, 0.000, 0.000, 17:44:30.572
193, -475.25, -81.44, 227.04, -3296.13, 0.000, 0.000, 0.000, 17:44:30.586
194, -513.91, -96.32, 265.63, -3288.31, 0.000, 0.000, 0.000, 17:44:30.586
195, -464.33, -66.52, 268.28, -3322.62, 0.000, 0.000, 0.000, 17:44:30.601
196, -424.57, -50.78, 237.40, -3402.09, 0.000, 0.000, 0.000, 17:44:30.601
197, -480.07, -81.92, 237.65, -3292.71, 0.000, 0.000, 0.000, 17:44:30.602
198, -504.01, -94.45, 251.64, -3194.70, 0.000, 0.000, 0.000, 17:44:30.602
199, -464.39, -71.04, 254.26, -3330.00, 0.000, 0.000, 0.000, 17:44:30.616
200, -436.86, -60.53, 222.40, -3426.48, 0.000, 0.000, 0.000, 17:44:30.616
0, -472.98, -81.92, 224.90, -3286.00, 0.000, 0.000, 0.000, 17:44:30.617
1, -501.06, -90.60, 261.94, -3236.28, 0.000, 0.000, 0.000, 17:44:30.631
2, -473.35, -74.35, 267.86, -3403.65, 0.000, 0.000, 0.000, 17:44:30.631
3, -445.27, -71.08, 225.24, -3397.98, 0.000, 0.000, 0.000, 17:44:30.646
4, -477.96, -83.48, 227.46, -3286.83, 0.000, 0.000, 0.000, 17:44:30.646
5, -510.46, -95.04, 266.51, -3251.22, 0.000, 0.000, 0.000, 17:44:30.647
6, -458.05, -67.66, 268.33, -3285.88, 0.000, 0.000, 0.000, 17:44:30.647
7, -427.41, -56.16, 239.16, -3386.06, 0.000, 0.000, 0.000, 17:44:30.661
8, -491.25, -93.76, 231.28, -3347.82, 0.000, 0.000, 0.000, 17:44:30.662
9, -518.52, -106.98, 243.03, -3193.26, 0.000, 0.000, 0.000, 17:44:30.676
10, -475.69, -76.38, 250.90, -3344.79, 0.000, 0.000, 0.000, 17:44:30.676
11, -431.90, -51.90, 228.02, -3410.21, 0.000, 0.000, 0.000, 17:44:30.677
12, -475.64, -81.42, 222.84, -3283.05, 0.000, 0.000, 0.000, 17:44:30.677
13, -512.87, -97.89, 255.05, -3241.75, 0.000, 0.000, 0.000, 17:44:30.691
14, -478.26, -73.92, 264.29, -3367.10, 0.000, 0.000, 0.000, 17:44:30.692
15, -436.15, -57.20, 235.55, -3337.13, 0.000, 0.000, 0.000, 17:44:30.706
16, -476.95, -83.77, 233.79, -3264.64, 0.000, 0.000, 0.000, 17:44:30.707
17, -516.58, -106.09, 259.86, -3267.31, 0.000, 0.000, 0.000, 17:44:30.707
18, -471.27, -77.69, 267.45, -3316.03, 0.000, 0.000, 0.000, 17:44:30.707
19, -431.67, -57.89, 241.48, -3389.89, 0.000, 0.000, 0.000, 17:44:30.721
20, -496.25, -103.97, 229.01, -3344.30, 0.000, 0.000, 0.000, 17:44:30.721
21, -518.15, -106.89, 243.18, -3215.06, 0.000, 0.000, 0.000, 17:44:30.736
22, -477.11, -83.65, 249.46, -3350.73, 0.000, 0.000, 0.000, 17:44:30.736
23, -456.61, -78.38, 221.92, -3479.85, 0.000, 0.000, 0.000, 17:44:30.737
24, -490.80, -98.47, 222.78, -3331.52, 0.000, 0.000, 0.000, 17:44:30.737
25, -526.39, -111.11, 245.41, -3264.07, 0.000, 0.000, 0.000, 17:44:30.752
26, -487.80, -89.44, 251.43, -3437.53, 0.000, 0.000, 0.000, 17:44:30.752
27, -431.76, -56.81, 242.06, -3425.68, 0.000, 0.000, 0.000, 17:44:30.766
28, -487.60, -90.39, 233.83, -3338.64, 0.000, 0.000, 0.000, 17:44:30.766
29, -522.15, -109.52, 240.37, -3260.12, 0.000, 0.000, 0.000, 17:44:30.767
30, -467.67, -79.20, 244.29, -3333.17, 0.000, 0.000, 0.000, 17:44:30.767
31, -427.74, -57.60, 232.32, -3410.17, 0.000, 0.000, 0.000, 17:44:30.796
32, -483.22, -87.85, 226.36, -3353.20, 0.000, 0.000, 0.000, 17:44:30.796
33, -519.92, -109.58, 245.97, -3203.01, 0.000, 0.000, 0.000, 17:44:30.797
34, -469.07, -72.94, 253.49, -3321.28, 0.000, 0.000, 0.000, 17:44:30.797
35, -432.94, -56.51, 238.97, -3399.37, 0.000, 0.000, 0.000, 17:44:30.797
36, -491.09, -90.86, 215.69, -3311.61, 0.000, 0.000, 0.000, 17:44:30.798
37, -512.79, -99.24, 244.41, -3254.38, 0.000, 0.000, 0.000, 17:44:30.812
38, -487.53, -81.59, 258.58, -3499.76, 0.000, 0.000, 0.000, 17:44:30.812
39, -424.73, -51.31, 222.37, -3408.68, 0.000, 0.000, 0.000, 17:44:30.826
40, -470.33, -81.62, 221.07, -3292.64, 0.000, 0.000, 0.000, 17:44:30.826
41, -512.97, -102.42, 266.09, -3263.02, 0.000, 0.000, 0.000, 17:44:30.827
42, -451.94, -59.35, 253.22, -3276.48, 0.000, 0.000, 0.000, 17:44:30.827
43, -434.74, -58.63, 211.53, -3415.52, 0.000, 0.000, 0.000, 17:44:30.841
44, -484.53, -85.24, 236.80, -3339.09, 0.000, 0.000, 0.000, 17:44:30.842
45, -512.07, -95.45, 259.10, -3234.93, 0.000, 0.000, 0.000, 17:44:30.856
46, -472.35, -70.25, 257.80, -3368.18, 0.000, 0.000, 0.000, 17:44:30.856
47, -437.78, -59.47, 242.59, -3447.57, 0.000, 0.000, 0.000, 17:44:30.857
48, -483.12, -83.61, 243.30, -3299.40, 0.000, 0.000, 0.000, 17:44:30.857
49, -513.65, -100.52, 256.96, -3220.61, 0.000, 0.000, 0.000, 17:44:30.871
50, -471.23, -70.83, 267.82, -3364.74, 0.000, 0.000, 0.000, 17:44:30.871
51, -426.28, -50.40, 238.38, -3346.84, 0.000, 0.000, 0.000, 17:44:30.886
52, -471.87, -84.04, 230.71, -3268.50, 0.000, 0.000, 0.000, 17:44:30.886
53, -520.02, -106.28, 250.31, -3237.90, 0.000, 0.000, 0.000, 17:44:30.887
54, -462.93, -66.86, 260.72, -3324.88, 0.000, 0.000, 0.000, 17:44:30.887
55, -443.61, -67.55, 231.80, -3458.42, 0.000, 0.000, 0.000, 17:44:30.901
56, -495.75, -97.13, 237.25, -3366.58, 0.000, 0.000, 0.000, 17:44:30.902
57, -516.68, -103.66, 258.93, -3197.08, 0.000, 0.000, 0.000, 17:44:30.916
58, -468.83, -73.74, 265.22, -3329.60, 0.000, 0.000, 0.000, 17:44:30.916
59, -442.37, -61.67, 243.50, -3428.51, 0.000, 0.000, 0.000, 17:44:30.917
60, -479.35, -88.19, 235.39, -3273.17, 0.000, 0.000, 0.000, 17:44:30.917
61, -510.98, -90.59, 261.71, -3229.72, 0.000, 0.000, 0.000, 17:44:30.932
62, -477.13, -77.24, 265.70, -3379.61, 0.000, 0.000, 0.000, 17:44:30.932
63, -440.63, -62.52, 230.57, -3387.31, 0.000, 0.000, 0.000, 17:44:30.946
64, -484.81, -94.83, 226.08, -3322.75, 0.000, 0.000, 0.000, 17:44:30.946
65, -525.82, -110.66, 252.51, -3261.82, 0.000, 0.000, 0.000, 17:44:30.947
66, -454.25, -63.18, 273.49, -3293.80, 0.000, 0.000, 0.000, 17:44:30.947
67, -438.31, -60.16, 239.67, -3404.12, 0.000, 0.000, 0.000, 17:44:30.961
68, -493.09, -92.25, 236.43, -3379.63, 0.000, 0.000, 0.000, 17:44:30.961
69, -518.35, -104.96, 252.57, -3237.18, 0.000, 0.000, 0.000, 17:44:30.976
70, -468.64, -74.95, 265.87, -3382.78, 0.000, 0.000, 0.000, 17:44:30.976
71, -448.57, -69.86, 237.15, -3461.10, 0.000, 0.000, 0.000, 17:44:30.977
72, -487.90, -91.17, 240.36, -3305.47, 0.000, 0.000, 0.000, 17:44:30.977
73, -515.46, -105.30, 255.28, -3259.99, 0.000, 0.000, 0.000, 17:44:30.991
74, -476.32, -79.04, 265.44, -3383.23, 0.000, 0.000, 0.000, 17:44:30.991
75, -435.03, -62.00, 239.54, -3400.49, 0.000, 0.000, 0.000, 17:44:31.006
76, -478.19, -90.79, 233.59, -3297.47, 0.000, 0.000, 0.000, 17:44:31.006
77, -527.94, -116.22, 256.54, -3252.72, 0.000, 0.000, 0.000, 17:44:31.007
78, -468.18, -74.70, 260.98, -3310.46, 0.000, 0.000, 0.000, 17:44:31.007
79, -427.96, -53.53, 236.43, -3403.89, 0.000, 0.000, 0.000, 17:44:31.021
80, -480.03, -82.51, 246.33, -3368.15, 0.000, 0.000, 0.000, 17:44:31.021
81, -514.27, -104.41, 252.70, -3235.11, 0.000, 0.000, 0.000, 17:44:31.036
82, -474.09, -78.24, 254.09, -3354.66, 0.000, 0.000, 0.000, 17:44:31.036
83, -443.99, -63.73, 231.14, -3461.61, 0.000, 0.000, 0.000, 17:44:31.037
84, -482.63, -89.10, 215.65, -3318.30, 0.000, 0.000, 0.000, 17:44:31.037
85, -514.79, -101.80, 256.95, -3269.53, 0.000, 0.000, 0.000, 17:44:31.051
86, -481.26, -73.14, 260.92, -3392.08, 0.000, 0.000, 0.000, 17:44:31.052
87, -428.14, -55.67, 231.75, -3365.83, 0.000, 0.000, 0.000, 17:44:31.066
88, -469.11, -80.73, 239.79, -3230.23, 0.000, 0.000, 0.000, 17:44:31.066
89, -506.88, -99.64, 251.53, -3216.21, 0.000, 0.000, 0.000, 17:44:31.067
90, -461.06, -70.49, 252.16, -3283.33, 0.000, 0.000, 0.000, 17:44:31.067
91, -429.34, -58.90, 230.96, -3381.37, 0.000, 0.000, 0.000, 17:44:31.081
92, -475.88, -87.45, 237.99, -3359.55, 0.000, 0.000, 0.000, 17:44:31.082
93, -504.20, -100.51, 254.40, -3198.25, 0.000, 0.000, 0.000, 17:44:31.111
94, -455.27, -67.82, 265.42, -3329.95, 0.000, 0.000, 0.000, 17:44:31.111
95, -437.80, -62.33, 240.44, -3467.34, 0.000, 0.000, 0.000, 17:44:31.112
96, -486.41, -95.00, 222.27, -3304.02, 0.000, 0.000, 0.000, 17:44:31.112
97, -509.14, -94.54, 263.93, -3230.99, 0.000, 0.000, 0.000, 17:44:31.112
98, -468.68, -71.71, 266.88, -3320.37, 0.000, 0.000, 0.000, 17:44:31.113
99, -430.34, -54.54, 236.34, -3399.83, 0.000, 0.000, 0.000, 17:44:31.113
100, -480.43, -89.06, 218.24, -3325.22, 0.000, 0.000, 0.000, 17:44:31.113
101, -530.96, -106.06, 272.72, -3406.86, 0.000, 0.000, 0.000, 17:44:31.126
102, -455.51, -58.69, 262.11, -3299.02, 0.000, 0.000, 0.000, 17:44:31.127
103, -429.66, -54.79, 237.65, -3392.81, 0.000, 0.000, 0.000, 17:44:31.141
104, -470.08, -78.11, 248.25, -3322.11, 0.000, 0.000, 0.000, 17:44:31.141
105, -510.48, -102.34, 267.04, -3197.25, 0.000, 0.000, 0.000, 17:44:31.156
106, -471.23, -76.61, 261.57, -3338.30, 0.000, 0.000, 0.000, 17:44:31.156
107, -438.30, -58.35, 240.11, -3449.49, 0.000, 0.000, 0.000, 17:44:31.157
108, -471.42, -81.72, 236.20, -3287.59, 0.000, 0.000, 0.000, 17:44:31.157
109, -504.87, -94.18, 262.40, -3198.83, 0.000, 0.000, 0.000, 17:44:31.171
110, -475.14, -73.03, 265.59, -3372.05, 0.000, 0.000, 0.000, 17:44:31.172
111, -426.57, -52.12, 242.76, -3386.14, 0.000, 0.000, 0.000, 17:44:31.186
112, -480.79, -85.47, 237.11, -3291.83, 0.000, 0.000, 0.000, 17:44:31.186
113, -509.49, -97.97, 274.27, -3241.06, 0.000, 0.000, 0.000, 17:44:31.187
114, -464.73, -70.21, 268.98, -3314.82, 0.000, 0.000, 0.000, 17:44:31.187
115, -446.72, -68.77, 236.18, -3460.78, 0.000, 0.000, 0.000, 17:44:31.201
116, -495.73, -93.65, 244.71, -3388.35, 0.000, 0.000, 0.000, 17:44:31.202
117, -521.43, -103.85, 240.36, -3250.48, 0.000, 0.000, 0.000, 17:44:31.216
118, -472.04, -72.76, 267.37, -3370.09, 0.000, 0.000, 0.000, 17:44:31.216
119, -447.60, -60.76, 229.31, -3446.31, 0.000, 0.000, 0.000, 17:44:31.217
120, -485.34, -87.93, 225.46, -3306.93, 0.000, 0.000, 0.000, 17:44:31.217
121, -504.37, -90.85, 269.71, -3260.45, 0.000, 0.000, 0.000, 17:44:31.231
122, -469.05, -66.52, 274.84, -3407.66, 0.000, 0.000, 0.000, 17:44:31.232
123, -428.06, -47.81, 252.45, -3407.45, 0.000, 0.000, 0.000, 17:44:31.246
124, -472.15, -79.61, 234.02, -3273.43, 0.000, 0.000, 0.000, 17:44:31.246
125, -521.01, -103.28, 255.25, -3254.25, 0.000, 0.000, 0.000, 17:44:31.247
126, -464.18, -62.15, 265.60, -3323.12, 0.000, 0.000, 0.000, 17:44:31.247
127, -430.62, -53.22, 241.62, -3411.32, 0.000, 0.000, 0.000, 17:44:31.262
128, -481.73, -76.50, 251.07, -3353.18, 0.000, 0.000, 0.000, 17:44:31.262
129, -512.31, -94.21, 261.23, -3207.44, 0.000, 0.000, 0.000, 17:44:31.276
130, -468.69, -71.05, 263.81, -3328.25, 0.000, 0.000, 0.000, 17:44:31.276
131, -437.16, -64.00, 231.60, -3444.19, 0.000, 0.000, 0.000, 17:44:31.277
132, -483.40, -91.43, 222.08, -3303.16, 0.000, 0.000, 0.000, 17:44:31.277
133, -521.31, -104.80, 267.97, -3290.37, 0.000, 0.000, 0.000, 17:44:31.291
134, -491.60, -85.97, 272.40, -3451.55, 0.000, 0.000, 0.000, 17:44:31.291
135, -436.99, -61.76, 238.23, -3398.17, 0.000, 0.000, 0.000, 17:44:31.307
136, -479.25, -89.06, 226.73, -3314.77, 0.000, 0.000, 0.000, 17:44:31.307
137, -520.28, -102.15, 259.25, -3271.07, 0.000, 0.000, 0.000, 17:44:31.307
138, -470.57, -69.73, 260.65, -3351.93, 0.000, 0.000, 0.000, 17:44:31.307
139, -440.49, -59.77, 239.63, -3426.49, 0.000, 0.000, 0.000, 17:44:31.321
140, -496.69, -91.24, 239.28, -3383.56, 0.000, 0.000, 0.000, 17:44:31.321
141, -515.88, -99.43, 251.67, -3227.14, 0.000, 0.000, 0.000, 17:44:31.336
142, -474.17, -72.42, 260.06, -3341.16, 0.000, 0.000, 0.000, 17:44:31.336
143, -441.23, -56.32, 239.82, -3422.42, 0.000, 0.000, 0.000, 17:44:31.337
144, -479.54, -85.81, 233.75, -3292.30, 0.000, 0.000, 0.000, 17:44:31.337
145, -521.68, -102.34, 258.22, -3241.54, 0.000, 0.000, 0.000, 17:44:31.351
146, -478.28, -75.99, 258.88, -3412.03, 0.000, 0.000, 0.000, 17:44:31.352
147, -442.80, -68.26, 212.17, -3429.36, 0.000, 0.000, 0.000, 17:44:31.366
148, -485.42, -94.61, 222.04, -3358.74, 0.000, 0.000, 0.000, 17:44:31.366
149, -508.47, -101.32, 255.08, -3272.88, 0.000, 0.000, 0.000, 17:44:31.367
150, -468.27, -75.63, 265.34, -3315.96, 0.000, 0.000, 0.000, 17:44:31.367
151, -435.34, -54.04, 240.31, -3426.28, 0.000, 0.000, 0.000, 17:44:31.381
152, -491.40, -94.87, 231.25, -3380.33, 0.000, 0.000, 0.000, 17:44:31.381
153, -515.06, -105.64, 253.94, -3236.37, 0.000, 0.000, 0.000, 17:44:31.396
154, -472.79, -70.89, 259.30, -3377.73, 0.000, 0.000, 0.000, 17:44:31.396
155, -453.98, -70.40, 233.95, -3479.23, 0.000, 0.000, 0.000, 17:44:31.397
156, -482.64, -82.03, 227.43, -3280.67, 0.000, 0.000, 0.000, 17:44:31.397
157, -507.00, -90.18, 263.83, -3211.39, 0.000, 0.000, 0.000, 17:44:31.411
158, -465.28, -69.07, 268.77, -3351.53, 0.000, 0.000, 0.000, 17:44:31.411
159, -429.34, -53.57, 234.78, -3381.34, 0.000, 0.000, 0.000, 17:44:31.426
160, -477.84, -87.92, 230.51, -3288.49, 0.000, 0.000, 0.000, 17:44:31.426
161, -510.89, -99.23, 268.60, -3204.14, 0.000, 0.000, 0.000, 17:44:31.427
162, -467.80, -79.00, 270.84, -3283.25, 0.000, 0.000, 0.000, 17:44:31.427
163, -435.70, -63.08, 222.11, -3402.34, 0.000, 0.000, 0.000, 17:44:31.441
164, -491.91, -95.58, 230.60, -3353.57, 0.000, 0.000, 0.000, 17:44:31.442
165, -503.72, -91.22, 261.39, -3181.53, 0.000, 0.000, 0.000, 17:44:31.456
166, -465.34, -68.35, 258.13, -3329.11, 0.000, 0.000, 0.000, 17:44:31.456
167, -437.74, -62.94, 237.52, -3452.32, 0.000, 0.000, 0.000, 17:44:31.457
168, -469.88, -80.66, 231.74, -3292.15, 0.000, 0.000, 0.000, 17:44:31.457
169, -510.49, -96.67, 262.27, -3219.87, 0.000, 0.000, 0.000, 17:44:31.471
170, -473.87, -71.56, 259.00, -3408.65, 0.000, 0.000, 0.000, 17:44:31.471
171, -436.45, -64.04, 233.95, -3421.18, 0.000, 0.000, 0.000, 17:44:31.486
172, -477.66, -87.00, 216.17, -3323.68, 0.000, 0.000, 0.000, 17:44:31.486
173, -505.67, -94.25, 261.01, -3312.77, 0.000, 0.000, 0.000, 17:44:31.487
174, -474.48, -73.49, 268.54, -3328.45, 0.000, 0.000, 0.000, 17:44:31.487
175, -437.25, -57.43, 239.85, -3409.08, 0.000, 0.000, 0.000, 17:44:31.501
176, -488.05, -89.59, 238.30, -3360.31, 0.000, 0.000, 0.000, 17:44:31.501
177, -519.68, -102.66, 256.34, -3246.02, 0.000, 0.000, 0.000, 17:44:31.516
178, -464.66, -67.87, 277.75, -3318.12, 0.000, 0.000, 0.000, 17:44:31.516
179, -441.63, -59.04, 245.44, -3442.85, 0.000, 0.000, 0.000, 17:44:31.517
180, -481.25, -86.89, 236.34, -3281.76, 0.000, 0.000, 0.000, 17:44:31.517
181, -511.11, -95.23, 277.97, -3227.83, 0.000, 0.000, 0.000, 17:44:31.532
182, -478.24, -76.16, 273.62, -3379.74, 0.000, 0.000, 0.000, 17:44:31.532
183, -437.47, -56.41, 225.94, -3389.94, 0.000, 0.000, 0.000, 17:44:31.546
184, -475.92, -81.06, 228.79, -3268.07, 0.000, 0.000, 0.000, 17:44:31.546
185, -511.50, -94.18, 259.27, -3220.23, 0.000, 0.000, 0.000, 17:44:31.547
186, -469.57, -74.01, 250.84, -3316.00, 0.000, 0.000, 0.000, 17:44:31.547
187, -429.21, -51.96, 240.59, -3389.55, 0.000, 0.000, 0.000, 17:44:31.561
188, -482.14, -87.33, 237.02, -3369.91, 0.000, 0.000, 0.000, 17:44:31.561
189, -515.72, -108.99, 261.40, -3199.71, 0.000, 0.000, 0.000, 17:44:31.576
190, -461.24, -65.36, 259.29, -3312.60, 0.000, 0.000, 0.000, 17:44:31.576
191, -435.69, -61.02, 231.89, -3423.25, 0.000, 0.000, 0.000, 17:44:31.577
192, -481.58, -92.02, 223.55, -3307.95, 0.000, 0.000, 0.000, 17:44:31.577
193, -515.33, -97.07, 266.67, -3263.16, 0.000, 0.000, 0.000, 17:44:31.591
194, -472.36, -72.38, 282.08, -3436.69, 0.000, 0.000, 0.000, 17:44:31.591
195, -432.46, -55.69, 238.10, -3407.48, 0.000, 0.000, 0.000, 17:44:31.606
196, -472.97, -80.14, 244.72, -3291.92, 0.000, 0.000, 0.000, 17:44:31.606
197, -519.71, -103.46, 256.40, -3274.95, 0.000, 0.000, 0.000, 17:44:31.607
198, -472.80, -71.03, 255.52, -3342.01, 0.000, 0.000, 0.000, 17:44:31.607
199, -429.17, -55.33, 240.05, -3412.53, 0.000, 0.000, 0.000, 17:44:31.621
200, -492.14, -102.45, 233.39, -3370.71, 0.000, 0.000, 0.000, 17:44:31.621
0, -506.85, -99.53, 257.02, -3215.02, 0.000, 0.000, 0.000, 17:44:31.622
1, -472.65, -80.32, 261.50, -3352.81, 0.000, 0.000, 0.000, 17:44:31.636
2, -448.89, -74.46, 246.53, -3503.96, 0.000, 0.000, 0.000, 17:44:31.637
3, -485.05, -89.93, 232.61, -3311.61, 0.000, 0.000, 0.000, 17:44:31.651
4, -520.26, -104.11, 249.64, -3216.32, 0.000, 0.000, 0.000, 17:44:31.651
5, -478.93, -80.70, 265.88, -3343.80, 0.000, 0.000, 0.000, 17:44:31.652
6, -437.51, -63.46, 228.13, -3413.34, 0.000, 0.000, 0.000, 17:44:31.652
7, -480.72, -87.59, 235.31, -3322.62, 0.000, 0.000, 0.000, 17:44:31.666
8, -519.69, -103.94, 254.51, -3298.63, 0.000, 0.000, 0.000, 17:44:31.667
9, -468.49, -73.36, 255.98, -3327.02, 0.000, 0.000, 0.000, 17:44:31.681
10, -433.00, -57.05, 240.41, -3404.21, 0.000, 0.000, 0.000, 17:44:31.681
11, -481.45, -89.13, 240.41, -3320.40, 0.000, 0.000, 0.000, 17:44:31.682
12, -517.00, -109.22, 245.67, -3226.21, 0.000, 0.000, 0.000, 17:44:31.682
13, -462.97, -67.54, 264.92, -3336.75, 0.000, 0.000, 0.000, 17:44:31.696
14, -446.29, -64.60, 242.80, -3497.44, 0.000, 0.000, 0.000, 17:44:31.696
15, -477.66, -83.79, 241.15, -3309.66, 0.000, 0.000, 0.000, 17:44:31.711
16, -510.54, -97.14, 261.51, -3214.61, 0.000, 0.000, 0.000, 17:44:31.711
17, -469.01, -72.55, 275.44, -3351.58, 0.000, 0.000, 0.000, 17:44:31.712
18, -437.07, -58.34, 233.19, -3399.74, 0.000, 0.000, 0.000, 17:44:31.712
19, -473.39, -82.26, 235.79, -3296.24, 0.000, 0.000, 0.000, 17:44:31.726
20, -517.66, -101.82, 263.38, -3312.50, 0.000, 0.000, 0.000, 17:44:31.726
21, -464.17, -73.04, 269.74, -3314.27, 0.000, 0.000, 0.000, 17:44:31.756
22, -427.41, -53.23, 239.17, -3412.08, 0.000, 0.000, 0.000, 17:44:31.756
23, -474.48, -85.45, 234.05, -3308.46, 0.000, 0.000, 0.000, 17:44:31.757
24, -506.63, -95.50, 244.63, -3199.52, 0.000, 0.000, 0.000, 17:44:31.757
25, -465.02, -72.59, 253.83, -3316.23, 0.000, 0.000, 0.000, 17:44:31.757
26, -429.22, -58.42, 221.83, -3394.93, 0.000, 0.000, 0.000, 17:44:31.757
27, -472.04, -89.52, 226.21, -3297.26, 0.000, 0.000, 0.000, 17:44:31.758
28, -500.10, -90.82, 265.89, -3213.28, 0.000, 0.000, 0.000, 17:44:31.758
29, -488.10, -83.24, 280.45, -3477.33, 0.000, 0.000, 0.000, 17:44:31.771
30, -432.78, -60.71, 239.98, -3351.96, 0.000, 0.000, 0.000, 17:44:31.771
31, -482.89, -90.98, 228.73, -3296.80, 0.000, 0.000, 0.000, 17:44:31.786
32, -522.76, -108.25, 260.47, -3242.83, 0.000, 0.000, 0.000, 17:44:31.786
33, -464.94, -72.73, 259.44, -3281.32, 0.000, 0.000, 0.000, 17:44:31.801
34, -430.26, -52.51, 240.17, -3369.69, 0.000, 0.000, 0.000, 17:44:31.801
35, -481.15, -85.76, 237.11, -3287.08, 0.000, 0.000, 0.000, 17:44:31.802
36, -507.81, -96.29, 253.62, -3192.51, 0.000, 0.000, 0.000, 17:44:31.802
37, -461.33, -69.42, 265.57, -3282.10, 0.000, 0.000, 0.000, 17:44:31.817
38, -431.00, -55.82, 246.31, -3447.05, 0.000, 0.000, 0.000, 17:44:31.817
39, -468.33, -76.09, 230.06, -3292.50, 0.000, 0.000, 0.000, 17:44:31.831
40, -501.29, -95.23, 258.22, -3202.28, 0.000, 0.000, 0.000, 17:44:31.832
41, -467.06, -73.01, 269.65, -3352.78, 0.000, 0.000, 0.000, 17:44:31.832
42, -425.44, -55.53, 239.03, -3377.35, 0.000, 0.000, 0.000, 17:44:31.832
43, -473.40, -85.14, 220.67, -3306.98, 0.000, 0.000, 0.000, 17:44:31.846
44, -527.64, -116.17, 254.58, -3312.33, 0.000, 0.000, 0.000, 17:44:31.846
45, -467.70, -76.19, 264.46, -3338.10, 0.000, 0.000, 0.000, 17:44:31.861
46, -430.83, -59.72, 243.42, -3407.45, 0.000, 0.000, 0.000, 17:44:31.861
47, -481.98, -91.95, 237.41, -3328.48, 0.000, 0.000, 0.000, 17:44:31.862
48, -515.53, -108.07, 258.00, -3213.10, 0.000, 0.000, 0.000, 17:44:31.862
49, -469.37, -75.68, 261.30, -3331.45, 0.000, 0.000, 0.000, 17:44:31.876
50, -441.46, -63.78, 237.60, -3456.59, 0.000, 0.000, 0.000, 17:44:31.876
51, -482.23, -89.94, 224.55, -3310.24, 0.000, 0.000, 0.000, 17:44:31.891
52, -501.94, -93.62, 263.74, -3185.12, 0.000, 0.000, 0.000, 17:44:31.891
53, -471.70, -75.19, 271.19, -3354.38, 0.000, 0.000, 0.000, 17:44:31.892
54, -429.68, -50.81, 241.54, -3390.03, 0.000, 0.000, 0.000, 17:44:31.892
55, -487.25, -91.61, 222.82, -3331.37, 0.000, 0.000, 0.000, 17:44:31.906
56, -510.20, -91.32, 278.77, -3268.39, 0.000, 0.000, 0.000, 17:44:31.907
57, -460.23, -67.26, 262.34, -3293.63, 0.000, 0.000, 0.000, 17:44:31.921
58, -431.22, -53.50, 238.29, -3415.24, 0.000, 0.000, 0.000, 17:44:31.921
59, -471.31, -78.40, 236.05, -3318.27, 0.000, 0.000, 0.000, 17:44:31.936
60, -505.08, -96.00, 254.96, -3183.53, 0.000, 0.000, 0.000, 17:44:31.936
61, -470.18, -76.40, 261.29, -3352.41, 0.000, 0.000, 0.000, 17:44:31.937
62, -437.85, -55.66, 246.90, -3446.00, 0.000, 0.000, 0.000, 17:44:31.937
63, -466.14, -79.44, 236.88, -3271.07, 0.000, 0.000, 0.000, 17:44:31.951
64, -511.87, -102.47, 265.08, -3241.29, 0.000, 0.000, 0.000, 17:44:31.951
65, -481.63, -73.40, 271.28, -3375.88, 0.000, 0.000, 0.000, 17:44:31.952
66, -441.23, -63.00, 233.57, -3390.87, 0.000, 0.000, 0.000, 17:44:31.952
67, -493.45, -101.10, 230.35, -3313.85, 0.000, 0.000, 0.000, 17:44:31.966
68, -515.87, -100.19, 276.02, -3282.38, 0.000, 0.000, 0.000, 17:44:31.967
69, -473.96, -74.96, 270.91, -3349.00, 0.000, 0.000, 0.000, 17:44:31.981
70, -431.82, -53.73, 238.18, -3408.46, 0.000, 0.000, 0.000, 17:44:31.981
71, -480.47, -91.61, 231.40, -3325.08, 0.000, 0.000, 0.000, 17:44:31.982
72, -512.90, -103.73, 254.17, -3215.71, 0.000, 0.000, 0.000, 17:44:31.982
73, -467.73, -71.47, 265.54, -3310.13, 0.000, 0.000, 0.000, 17:44:31.996
74, -450.50, -69.28, 238.09, -3480.03, 0.000, 0.000, 0.000, 17:44:31.996
75, -460.72, -74.41, 240.19, -3257.50, 0.000, 0.000, 0.000, 17:44:32.011
76, -501.60, -97.15, 265.99, -3181.47, 0.000, 0.000, 0.000, 17:44:32.012
77, -460.58, -64.12, 264.37, -3311.97, 0.000, 0.000, 0.000, 17:44:32.012
78, -417.72, -44.62, 239.87, -3358.68, 0.000, 0.000, 0.000, 17:44:32.012
79, -470.72, -78.18, 227.61, -3281.23, 0.000, 0.000, 0.000, 17:44:32.026
80, -516.23, -103.92, 261.33, -3278.10, 0.000, 0.000, 0.000, 17:44:32.026
81, -467.68, -71.65, 257.17, -3305.47, 0.000, 0.000, 0.000, 17:44:32.041
82, -429.97, -57.86, 236.51, -3342.06, 0.000, 0.000, 0.000, 17:44:32.041
83, -471.87, -84.92, 238.10, -3314.13, 0.000, 0.000, 0.000, 17:44:32.042
84, -512.73, -102.19, 246.71, -3194.26, 0.000, 0.000, 0.000, 17:44:32.042
85, -470.95, -75.76, 251.71, -3337.33, 0.000, 0.000, 0.000, 17:44:32.071
86, -438.79, -55.13, 237.42, -3464.12, 0.000, 0.000, 0.000, 17:44:32.071
87, -476.03, -79.88, 228.69, -3285.60, 0.000, 0.000, 0.000, 17:44:32.071
88, -506.42, -91.49, 267.88, -3235.14, 0.000, 0.000, 0.000, 17:44:32.072
89, -477.99, -77.79, 250.30, -3322.46, 0.000, 0.000, 0.000, 17:44:32.072
90, -427.12, -48.13, 239.59, -3380.53, 0.000, 0.000, 0.000, 17:44:32.072
91, -478.43, -87.16, 233.81, -3308.02, 0.000, 0.000, 0.000, 17:44:32.086
92, -524.41, -105.14, 262.11, -3351.53, 0.000, 0.000, 0.000, 17:44:32.087
93, -461.12, -69.07, 261.98, -3323.02, 0.000, 0.000, 0.000, 17:44:32.101
94, -427.75, -51.89, 241.10, -3403.48, 0.000, 0.000, 0.000, 17:44:32.101
95, -476.04, -84.84, 239.79, -3325.56, 0.000, 0.000, 0.000, 17:44:32.102
96, -505.90, -100.99, 255.58, -3237.66, 0.000, 0.000, 0.000, 17:44:32.102
97, -461.71, -69.78, 267.73, -3336.76, 0.000, 0.000, 0.000, 17:44:32.116
98, -434.46, -55.64, 244.23, -3460.03, 0.000, 0.000, 0.000, 17:44:32.116
99, -484.18, -91.98, 223.90, -3301.19, 0.000, 0.000, 0.000, 17:44:32.131
100, -505.91, -101.45, 258.21, -3225.85, 0.000, 0.000, 0.000, 17:44:32.131
101, -475.12, -82.72, 274.20, -3348.17, 0.000, 0.000, 0.000, 17:44:32.132
102, -434.40, -62.52, 228.55, -3395.78, 0.000, 0.000, 0.000, 17:44:32.132
103, -469.99, -81.61, 240.62, -3306.87, 0.000, 0.000, 0.000, 17:44:32.146
104, -515.59, -99.53, 271.37, -3288.95, 0.000, 0.000, 0.000, 17:44:32.147
105, -470.69, -76.85, 260.01, -3318.57, 0.000, 0.000, 0.000, 17:44:32.161
106, -433.39, -56.35, 231.97, -3390.86, 0.000, 0.000, 0.000, 17:44:32.161
107, -481.46, -90.53, 232.11, -3344.80, 0.000, 0.000, 0.000, 17:44:32.162
108, -519.82, -106.18, 256.74, -3246.60, 0.000, 0.000, 0.000, 17:44:32.162
109, -466.42, -71.05, 271.54, -3335.05, 0.000, 0.000, 0.000, 17:44:32.176
110, -447.65, -69.83, 218.40, -3488.50, 0.000, 0.000, 0.000, 17:44:32.177
111, -470.12, -81.05, 228.81, -3311.82, 0.000, 0.000, 0.000, 17:44:32.191
112, -510.68, -98.91, 250.87, -3237.68, 0.000, 0.000, 0.000, 17:44:32.191
113, -475.17, -72.12, 267.89, -3389.71, 0.000, 0.000, 0.000, 17:44:32.192
114, -424.91, -50.40, 251.10, -3413.99, 0.000, 0.000, 0.000, 17:44:32.192
115, -481.61, -86.33, 237.57, -3347.18, 0.000, 0.000, 0.000, 17:44:32.206
116, -536.86, -113.49, 265.04, -3300.86, 0.000, 0.000, 0.000, 17:44:32.206
117, -478.02, -79.02, 253.23, -3329.27, 0.000, 0.000, 0.000, 17:44:32.221
118, -429.94, -54.83, 240.87, -3409.15, 0.000, 0.000, 0.000, 17:44:32.221
119, -480.14, -84.11, 238.44, -3334.52, 0.000, 0.000, 0.000, 17:44:32.222
120, -518.26, -102.33, 256.19, -3243.47, 0.000, 0.000, 0.000, 17:44:32.222
121, -465.42, -72.00, 268.23, -3334.30, 0.000, 0.000, 0.000, 17:44:32.236
122, -432.63, -52.04, 248.88, -3451.65, 0.000, 0.000, 0.000, 17:44:32.237
123, -474.91, -81.03, 226.98, -3302.55, 0.000, 0.000, 0.000, 17:44:32.251
124, -502.85, -93.39, 259.46, -3234.88, 0.000, 0.000, 0.000, 17:44:32.251
125, -472.61, -77.02, 269.07, -3358.88, 0.000, 0.000, 0.000, 17:44:32.252
126, -431.15, -51.99, 231.75, -3396.48, 0.000, 0.000, 0.000, 17:44:32.252
127, -464.35, -75.04, 227.51, -3300.12, 0.000, 0.000, 0.000, 17:44:32.266
128, -506.51, -95.67, 264.49, -3278.41, 0.000, 0.000, 0.000, 17:44:32.267
129, -459.18, -63.24, 252.70, -3344.80, 0.000, 0.000, 0.000, 17:44:32.281
130, -429.85, -49.22, 230.61, -3417.49, 0.000, 0.000, 0.000, 17:44:32.281
131, -472.97, -76.59, 231.50, -3356.87, 0.000, 0.000, 0.000, 17:44:32.282
132, -497.96, -83.96, 264.36, -3253.39, 0.000, 0.000, 0.000, 17:44:32.282
133, -464.53, -66.90, 270.81, -3384.47, 0.000, 0.000, 0.000, 17:44:32.296
134, -427.95, -45.88, 249.37, -3498.40, 0.000, 0.000, 0.000, 17:44:32.296
135, -448.11, -62.26, 246.45, -3295.53, 0.000, 0.000, 0.000, 17:44:32.311
136, -500.53, -90.87, 257.99, -3257.03, 0.000, 0.000, 0.000, 17:44:32.311
137, -467.12, -75.74, 261.71, -3364.45, 0.000, 0.000, 0.000, 17:44:32.312
138, -417.77, -48.05, 242.57, -3364.28, 0.000, 0.000, 0.000, 17:44:32.312
139, -465.78, -80.25, 234.59, -3327.62, 0.000, 0.000, 0.000, 17:44:32.326
140, -512.91, -94.35, 261.61, -3243.74, 0.000, 0.000, 0.000, 17:44:32.326
141, -459.10, -64.25, 254.32, -3287.01, 0.000, 0.000, 0.000, 17:44:32.341
142, -431.15, -57.60, 234.07, -3357.34, 0.000, 0.000, 0.000, 17:44:32.341
143, -475.36, -84.00, 232.40, -3302.07, 0.000, 0.000, 0.000, 17:44:32.342
144, -510.37, -102.27, 255.94, -3183.47, 0.000, 0.000, 0.000, 17:44:32.342
145, -465.96, -67.61, 262.89, -3300.55, 0.000, 0.000, 0.000, 17:44:32.356
146, -428.53, -51.96, 251.70, -3427.03, 0.000, 0.000, 0.000, 17:44:32.356
147, -467.66, -79.98, 231.99, -3282.61, 0.000, 0.000, 0.000, 17:44:32.371
148, -510.04, -101.73, 256.35, -3217.13, 0.000, 0.000, 0.000, 17:44:32.371
149, -468.54, -71.96, 277.21, -3335.26, 0.000, 0.000, 0.000, 17:44:32.372
150, -428.18, -47.88, 250.11, -3361.93, 0.000, 0.000, 0.000, 17:44:32.372
151, -474.68, -83.57, 225.84, -3321.83, 0.000, 0.000, 0.000, 17:44:32.386
152, -522.86, -103.74, 253.80, -3275.60, 0.000, 0.000, 0.000, 17:44:32.387
153, -463.97, -72.02, 262.61, -3299.18, 0.000, 0.000, 0.000, 17:44:32.401
154, -431.58, -56.81, 247.07, -3404.53, 0.000, 0.000, 0.000, 17:44:32.401
155, -478.73, -86.07, 244.95, -3318.36, 0.000, 0.000, 0.000, 17:44:32.402
156, -512.13, -108.31, 244.89, -3193.63, 0.000, 0.000, 0.000, 17:44:32.402
157, -473.81, -81.62, 261.77, -3296.52, 0.000, 0.000, 0.000, 17:44:32.417
158, -424.77, -58.26, 252.28, -3414.10, 0.000, 0.000, 0.000, 17:44:32.417
159, -470.09, -81.71, 240.67, -3286.24, 0.000, 0.000, 0.000, 17:44:32.431
160, -518.04, -104.52, 259.32, -3227.11, 0.000, 0.000, 0.000, 17:44:32.431
161, -477.39, -76.30, 278.67, -3345.11, 0.000, 0.000, 0.000, 17:44:32.432
162, -440.99, -62.79, 248.69, -3382.47, 0.000, 0.000, 0.000, 17:44:32.432
163, -480.55, -90.60, 234.71, -3291.43, 0.000, 0.000, 0.000, 17:44:32.446
164, -524.92, -113.75, 273.90, -3296.96, 0.000, 0.000, 0.000, 17:44:32.446
165, -474.64, -81.46, 261.88, -3287.24, 0.000, 0.000, 0.000, 17:44:32.461
166, -433.53, -60.28, 238.68, -3415.11, 0.000, 0.000, 0.000, 17:44:32.461
167, -485.99, -91.39, 230.04, -3349.76, 0.000, 0.000, 0.000, 17:44:32.462
168, -518.01, -104.19, 256.54, -3241.52, 0.000, 0.000, 0.000, 17:44:32.462
169, -472.96, -73.25, 274.11, -3357.03, 0.000, 0.000, 0.000, 17:44:32.476
170, -436.61, -53.99, 250.56, -3476.84, 0.000, 0.000, 0.000, 17:44:32.476
171, -480.51, -90.83, 230.24, -3357.91, 0.000, 0.000, 0.000, 17:44:32.491
172, -511.93, -103.25, 253.37, -3243.77, 0.000, 0.000, 0.000, 17:44:32.491
173, -467.11, -73.27, 276.45, -3385.59, 0.000, 0.000, 0.000, 17:44:32.492
174, -426.07, -48.15, 253.01, -3401.50, 0.000, 0.000, 0.000, 17:44:32.492
175, -467.63, -76.08, 246.16, -3329.63, 0.000, 0.000, 0.000, 17:44:32.506
176, -514.91, -102.86, 247.98, -3312.09, 0.000, 0.000, 0.000, 17:44:32.507
177, -466.93, -62.70, 267.44, -3311.73, 0.000, 0.000, 0.000, 17:44:32.521
178, -415.22, -36.74, 254.01, -3387.26, 0.000, 0.000, 0.000, 17:44:32.521
179, -461.12, -78.76, 249.23, -3301.46, 0.000, 0.000, 0.000, 17:44:32.522
180, -497.50, -102.21, 267.30, -3194.13, 0.000, 0.000, 0.000, 17:44:32.522
181, -466.01, -78.63, 260.86, -3322.91, 0.000, 0.000, 0.000, 17:44:32.536
182, -433.63, -57.49, 252.03, -3479.46, 0.000, 0.000, 0.000, 17:44:32.536
183, -470.04, -82.68, 231.35, -3312.11, 0.000, 0.000, 0.000, 17:44:32.551
184, -509.61, -98.60, 249.13, -3211.86, 0.000, 0.000, 0.000, 17:44:32.552
185, -468.42, -69.33, 266.88, -3331.66, 0.000, 0.000, 0.000, 17:44:32.552
186, -428.35, -59.30, 239.10, -3415.73, 0.000, 0.000, 0.000, 17:44:32.552
187, -471.22, -78.26, 235.17, -3303.97, 0.000, 0.000, 0.000, 17:44:32.566
188, -511.09, -93.91, 251.33, -3296.83, 0.000, 0.000, 0.000, 17:44:32.567
189, -463.27, -66.66, 268.22, -3297.22, 0.000, 0.000, 0.000, 17:44:32.581
190, -423.39, -50.16, 251.08, -3398.96, 0.000, 0.000, 0.000, 17:44:32.581
191, -472.03, -77.86, 233.14, -3331.55, 0.000, 0.000, 0.000, 17:44:32.582
192, -499.31, -87.65, 263.23, -3189.27, 0.000, 0.000, 0.000, 17:44:32.582
193, -460.78, -65.19, 267.72, -3328.11, 0.000, 0.000, 0.000, 17:44:32.596
194, -438.72, -59.36, 244.89, -3470.03, 0.000, 0.000, 0.000, 17:44:32.597
195, -474.31, -84.68, 231.58, -3298.59, 0.000, 0.000, 0.000, 17:44:32.611
196, -512.69, -97.98, 260.90, -3206.99, 0.000, 0.000, 0.000, 17:44:32.611
197, -474.36, -71.26, 267.92, -3338.75, 0.000, 0.000, 0.000, 17:44:32.612
198, -433.29, -56.75, 252.71, -3411.03, 0.000, 0.000, 0.000, 17:44:32.612
199, -475.89, -82.60, 239.42, -3314.52, 0.000, 0.000, 0.000, 17:44:32.626
200, -531.38, -114.87, 259.69, -3299.66, 0.000, 0.000, 0.000, 17:44:32.626
0, -468.96, -70.19, 271.21, -3295.72, 0.000, 0.000, 0.000, 17:44:32.627
1, -420.94, -50.85, 254.93, -3353.27, 0.000, 0.000, 0.000, 17:44:32.641
2, -474.43, -77.93, 249.01, -3362.19, 0.000, 0.000, 0.000, 17:44:32.642
3, -510.81, -101.76, 254.35, -3189.41, 0.000, 0.000, 0.000, 17:44:32.656
4, -478.07, -78.88, 254.19, -3366.19, 0.000, 0.000, 0.000, 17:44:32.656
5, -440.96, -56.95, 245.77, -3439.19, 0.000, 0.000, 0.000, 17:44:32.657
6, -466.68, -80.71, 227.69, -3283.30, 0.000, 0.000, 0.000, 17:44:32.657
7, -503.60, -98.47, 259.40, -3230.57, 0.000, 0.000, 0.000, 17:44:32.671
8, -473.62, -76.96, 265.95, -3406.25, 0.000, 0.000, 0.000, 17:44:32.671
9, -427.68, -50.05, 243.34, -3400.04, 0.000, 0.000, 0.000, 17:44:32.686
10, -469.47, -80.10, 225.02, -3299.11, 0.000, 0.000, 0.000, 17:44:32.686
11, -513.49, -102.42, 246.61, -3249.85, 0.000, 0.000, 0.000, 17:44:32.687
12, -465.53, -68.13, 265.38, -3314.06, 0.000, 0.000, 0.000, 17:44:32.687
13, -435.03, -66.61, 237.75, -3436.84, 0.000, 0.000, 0.000, 17:44:32.716
14, -486.90, -96.87, 248.55, -3407.20, 0.000, 0.000, 0.000, 17:44:32.717
15, -512.24, -101.09, 263.41, -3226.02, 0.000, 0.000, 0.000, 17:44:32.717
16, -471.75, -69.66, 267.49, -3347.03, 0.000, 0.000, 0.000, 17:44:32.717
17, -434.15, -56.72, 235.62, -3426.59, 0.000, 0.000, 0.000, 17:44:32.718
18, -468.69, -82.74, 233.32, -3303.87, 0.000, 0.000, 0.000, 17:44:32.718
19, -511.17, -97.85, 257.19, -3244.36, 0.000, 0.000, 0.000, 17:44:32.731
20, -489.72, -87.22, 273.92, -3445.79, 0.000, 0.000, 0.000, 17:44:32.732
21, -438.79, -60.97, 229.00, -3368.50, 0.000, 0.000, 0.000, 17:44:32.746
22, -475.34, -89.18, 221.23, -3299.39, 0.000, 0.000, 0.000, 17:44:32.746
23, -509.76, -96.38, 268.65, -3208.39, 0.000, 0.000, 0.000, 17:44:32.747
24, -470.77, -79.87, 257.53, -3302.39, 0.000, 0.000, 0.000, 17:44:32.747
25, -434.44, -57.93, 235.49, -3398.10, 0.000, 0.000, 0.000, 17:44:32.761
26, -485.38, -87.40, 228.42, -3369.01, 0.000, 0.000, 0.000, 17:44:32.761
27, -505.19, -95.64, 260.94, -3205.14, 0.000, 0.000, 0.000, 17:44:32.776
28, -471.39, -72.09, 266.60, -3320.58, 0.000, 0.000, 0.000, 17:44:32.776
29, -434.58, -58.49, 249.69, -3403.53, 0.000, 0.000, 0.000, 17:44:32.777
30, -474.86, -85.59, 223.41, -3266.03, 0.000, 0.000, 0.000, 17:44:32.777
31, -516.43, -105.01, 250.52, -3228.19, 0.000, 0.000, 0.000, 17:44:32.791
32, -481.09, -78.52, 268.68, -3382.94, 0.000, 0.000, 0.000, 17:44:32.792
33, -432.90, -55.72, 242.91, -3431.92, 0.000, 0.000, 0.000, 17:44:32.806
34, -474.24, -79.94, 234.82, -3298.45, 0.000, 0.000, 0.000, 17:44:32.806
35, -520.99, -103.66, 247.40, -3289.36, 0.000, 0.000, 0.000, 17:44:32.807
36, -471.23, -71.42, 265.82, -3347.32, 0.000, 0.000, 0.000, 17:44:32.807
37, -430.85, -53.68, 235.42, -3396.62, 0.000, 0.000, 0.000, 17:44:32.821
38, -475.24, -81.40, 227.88, -3368.77, 0.000, 0.000, 0.000, 17:44:32.821
39, -511.45, -94.92, 252.95, -3201.79, 0.000, 0.000, 0.000, 17:44:32.836
40, -474.07, -75.49, 259.83, -3311.05, 0.000, 0.000, 0.000, 17:44:32.836
41, -441.22, -68.41, 237.90, -3429.21, 0.000, 0.000, 0.000, 17:44:32.837
42, -476.27, -82.66, 235.28, -3323.53, 0.000, 0.000, 0.000, 17:44:32.837
43, -508.59, -97.66, 255.43, -3223.11, 0.000, 0.000, 0.000, 17:44:32.851
44, -482.47, -78.93, 261.13, -3396.16, 0.000, 0.000, 0.000, 17:44:32.852
45, -430.83, -54.36, 239.65, -3387.80, 0.000, 0.000, 0.000, 17:44:32.866
46, -465.94, -76.74, 231.62, -3322.41, 0.000, 0.000, 0.000, 17:44:32.866
47, -513.00, -101.27, 244.51, -3222.35, 0.000, 0.000, 0.000, 17:44:32.867
48, -474.89, -76.55, 260.07, -3311.96, 0.000, 0.000, 0.000, 17:44:32.867
49, -442.10, -59.83, 241.03, -3431.74, 0.000, 0.000, 0.000, 17:44:32.882
50, -479.41, -81.13, 242.25, -3360.99, 0.000, 0.000, 0.000, 17:44:32.882
51, -516.04, -106.04, 256.72, -3207.96, 0.000, 0.000, 0.000, 17:44:32.896
52, -476.82, -78.68, 275.15, -3311.05, 0.000, 0.000, 0.000, 17:44:32.896
53, -441.23, -61.52, 234.00, -3417.34, 0.000, 0.000, 0.000, 17:44:32.897
54, -473.95, -82.19, 234.25, -3285.71, 0.000, 0.000, 0.000, 17:44:32.897
55, -526.00, -110.74, 246.84, -3264.93, 0.000, 0.000, 0.000, 17:44:32.911
56, -484.21, -81.70, 268.75, -3403.97, 0.000, 0.000, 0.000, 17:44:32.911
57, -437.46, -61.08, 248.79, -3416.17, 0.000, 0.000, 0.000, 17:44:32.926
58, -481.57, -90.62, 225.19, -3344.39, 0.000, 0.000, 0.000, 17:44:32.926
59, -525.19, -110.98, 249.56, -3285.39, 0.000, 0.000, 0.000, 17:44:32.927
60, -474.53, -76.31, 256.90, -3350.40, 0.000, 0.000, 0.000, 17:44:32.927
61, -432.99, -55.89, 245.24, -3407.56, 0.000, 0.000, 0.000, 17:44:32.941
62, -476.14, -87.54, 229.91, -3391.81, 0.000, 0.000, 0.000, 17:44:32.941
63, -501.47, -93.75, 254.45, -3208.37, 0.000, 0.000, 0.000, 17:44:32.956
64, -470.84, -72.90, 266.05, -3327.85, 0.000, 0.000, 0.000, 17:44:32.956
65, -441.49, -62.29, 225.85, -3437.76, 0.000, 0.000, 0.000, 17:44:32.957
66, -465.91, -77.61, 233.45, -3307.21, 0.000, 0.000, 0.000, 17:44:32.957
67, -511.46, -98.96, 264.73, -3216.79, 0.000, 0.000, 0.000, 17:44:32.971
68, -480.17, -77.40, 265.03, -3343.93, 0.000, 0.000, 0.000, 17:44:32.972
69, -429.50, -50.58, 245.78, -3407.64, 0.000, 0.000, 0.000, 17:44:32.986
70, -468.71, -75.63, 254.00, -3318.40, 0.000, 0.000, 0.000, 17:44:32.986
71, -509.38, -98.26, 262.17, -3258.47, 0.000, 0.000, 0.000, 17:44:32.987
72, -469.12, -72.88, 270.31, -3304.79, 0.000, 0.000, 0.000, 17:44:32.987
73, -437.83, -61.84, 241.32, -3411.39, 0.000, 0.000, 0.000, 17:44:33.001
74, -476.52, -83.14, 248.15, -3389.45, 0.000, 0.000, 0.000, 17:44:33.002
75, -504.34, -99.65, 254.92, -3189.54, 0.000, 0.000, 0.000, 17:44:33.031
76, -478.14, -78.63, 254.69, -3306.50, 0.000, 0.000, 0.000, 17:44:33.031
77, -425.29, -46.81, 243.07, -3403.39, 0.000, 0.000, 0.000, 17:44:33.032
78, -462.55, -80.00, 231.65, -3294.13, 0.000, 0.000, 0.000, 17:44:33.032
79, -497.37, -96.55, 268.68, -3207.47, 0.000, 0.000, 0.000, 17:44:33.032
80, -458.32, -70.62, 262.16, -3291.46, 0.000, 0.000, 0.000, 17:44:33.032
81, -423.80, -47.23, 236.89, -3375.07, 0.000, 0.000, 0.000, 17:44:33.033
82, -444.92, -59.11, 239.78, -3303.28, 0.000, 0.000, 0.000, 17:44:33.033
83, -512.43, -98.08, 273.82, -3396.40, 0.000, 0.000, 0.000, 17:44:33.046
84, -448.21, -59.14, 275.87, -3289.16, 0.000, 0.000, 0.000, 17:44:33.046
85, -421.21, -52.14, 248.23, -3404.28, 0.000, 0.000, 0.000, 17:44:33.061
86, -461.34, -72.96, 237.01, -3322.43, 0.000, 0.000, 0.000, 17:44:33.062
87, -497.81, -93.56, 256.39, -3192.21, 0.000, 0.000, 0.000, 17:44:33.077
88, -464.10, -67.66, 271.90, -3324.36, 0.000, 0.000, 0.000, 17:44:33.077
89, -428.60, -49.74, 251.12, -3397.68, 0.000, 0.000, 0.000, 17:44:33.078
90, -457.26, -66.55, 231.16, -3244.87, 0.000, 0.000, 0.000, 17:44:33.078
91, -499.99, -94.59, 251.27, -3178.93, 0.000, 0.000, 0.000, 17:44:33.091
92, -469.18, -70.53, 273.68, -3356.75, 0.000, 0.000, 0.000, 17:44:33.091
93, -425.18, -54.70, 244.37, -3365.72, 0.000, 0.000, 0.000, 17:44:33.106
94, -479.14, -91.49, 227.00, -3339.12, 0.000, 0.000, 0.000, 17:44:33.106
95, -510.41, -102.64, 252.45, -3262.20, 0.000, 0.000, 0.000, 17:44:33.107
96, -465.96, -71.10, 267.18, -3279.38, 0.000, 0.000, 0.000, 17:44:33.107
97, -423.24, -47.99, 246.23, -3425.63, 0.000, 0.000, 0.000, 17:44:33.121
98, -473.19, -76.04, 250.17, -3359.21, 0.000, 0.000, 0.000, 17:44:33.121
99, -505.71, -94.69, 256.21, -3189.81, 0.000, 0.000, 0.000, 17:44:33.136
100, -467.19, -70.14, 266.39, -3292.00, 0.000, 0.000, 0.000, 17:44:33.136
101, -439.11, -54.17, 250.49, -3406.24, 0.000, 0.000, 0.000, 17:44:33.137
102, -469.42, -80.48, 231.74, -3299.07, 0.000, 0.000, 0.000, 17:44:33.137
103, -514.90, -95.71, 268.11, -3257.26, 0.000, 0.000, 0.000, 17:44:33.152
104, -485.07, -76.32, 280.85, -3383.00, 0.000, 0.000, 0.000, 17:44:33.152
105, -434.76, -59.65, 247.25, -3398.58, 0.000, 0.000, 0.000, 17:44:33.166
106, -469.10, -81.85, 240.06, -3305.33, 0.000, 0.000, 0.000, 17:44:33.166
107, -506.71, -96.61, 270.74, -3238.57, 0.000, 0.000, 0.000, 17:44:33.167
108, -469.85, -76.94, 268.01, -3292.86, 0.000, 0.000, 0.000, 17:44:33.167
109, -439.43, -60.73, 240.31, -3445.73, 0.000, 0.000, 0.000, 17:44:33.181
110, -481.76, -83.25, 240.53, -3396.67, 0.000, 0.000, 0.000, 17:44:33.181
111, -515.54, -106.57, 251.67, -3233.12, 0.000, 0.000, 0.000, 17:44:33.196
112, -489.73, -85.15, 267.69, -3364.32, 0.000, 0.000, 0.000, 17:44:33.196
113, -445.66, -62.40, 231.17, -3443.30, 0.000, 0.000, 0.000, 17:44:33.197
114, -471.92, -83.05, 221.15, -3311.16, 0.000, 0.000, 0.000, 17:44:33.197
115, -518.92, -113.40, 245.47, -3261.65, 0.000, 0.000, 0.000, 17:44:33.211
116, -488.71, -84.60, 264.08, -3402.50, 0.000, 0.000, 0.000, 17:44:33.212
117, -438.33, -59.97, 238.10, -3415.85, 0.000, 0.000, 0.000, 17:44:33.226
118, -481.31, -86.04, 234.83, -3335.72, 0.000, 0.000, 0.000, 17:44:33.226
119, -519.01, -101.41, 258.83, -3295.95, 0.000, 0.000, 0.000, 17:44:33.227
120, -480.20, -77.55, 263.86, -3331.71, 0.000, 0.000, 0.000, 17:44:33.227
121, -438.57, -58.20, 243.60, -3409.15, 0.000, 0.000, 0.000, 17:44:33.241
122, -485.59, -89.69, 233.71, -3359.58, 0.000, 0.000, 0.000, 17:44:33.241
123, -513.15, -101.96, 254.50, -3203.67, 0.000, 0.000, 0.000, 17:44:33.256
124, -472.70, -76.29, 259.86, -3313.42, 0.000, 0.000, 0.000, 17:44:33.256
125, -438.06, -56.72, 244.16, -3407.66, 0.000, 0.000, 0.000, 17:44:33.257
126, -472.04, -78.31, 228.93, -3271.15, 0.000, 0.000, 0.000, 17:44:33.257
127, -515.38, -108.01, 248.88, -3227.14, 0.000, 0.000, 0.000, 17:44:33.271
128, -487.80, -84.52, 261.91, -3389.69, 0.000, 0.000, 0.000, 17:44:33.272
129, -443.93, -65.21, 235.30, -3415.67, 0.000, 0.000, 0.000, 17:44:33.286
130, -473.33, -81.92, 237.44, -3302.06, 0.000, 0.000, 0.000, 17:44:33.286
131, -518.89, -107.79, 247.27, -3271.57, 0.000, 0.000, 0.000, 17:44:33.287
132, -473.70, -76.47, 268.14, -3302.79, 0.000, 0.000, 0.000, 17:44:33.287
133, -429.50, -57.17, 245.37, -3418.31, 0.000, 0.000, 0.000, 17:44:33.301
134, -473.03, -78.30, 244.25, -3388.48, 0.000, 0.000, 0.000, 17:44:33.302
135, -506.63, -91.71, 264.16, -3211.83, 0.000, 0.000, 0.000, 17:44:33.316
136, -473.21, -74.76, 265.49, -3328.97, 0.000, 0.000, 0.000, 17:44:33.316
137, -440.97, -58.83, 242.15, -3424.94, 0.000, 0.000, 0.000, 17:44:33.317
138, -469.10, -79.96, 236.24, -3302.60, 0.000, 0.000, 0.000, 17:44:33.317
139, -512.56, -106.28, 254.05, -3217.54, 0.000, 0.000, 0.000, 17:44:33.331
140, -490.47, -87.01, 259.07, -3368.77, 0.000, 0.000, 0.000, 17:44:33.331
141, -439.71, -54.61, 241.73, -3387.50, 0.000, 0.000, 0.000, 17:44:33.346
142, -475.11, -79.86, 228.72, -3307.51, 0.000, 0.000, 0.000, 17:44:33.346
143, -519.27, -103.07, 256.23, -3278.07, 0.000, 0.000, 0.000, 17:44:33.347
144, -473.57, -77.43, 264.09, -3309.14, 0.000, 0.000, 0.000, 17:44:33.347
145, -437.15, -60.17, 245.37, -3448.30, 0.000, 0.000, 0.000, 17:44:33.361
146, -479.92, -88.59, 231.03, -3396.26, 0.000, 0.000, 0.000, 17:44:33.361
147, -518.48, -105.26, 254.88, -3226.92, 0.000, 0.000, 0.000, 17:44:33.376
148, -479.22, -76.57, 265.31, -3343.61, 0.000, 0.000, 0.000, 17:44:33.376
149, -442.54, -70.77, 229.16, -3446.12, 0.000, 0.000, 0.000, 17:44:33.377
150, -471.15, -84.58, 233.03, -3321.34, 0.000, 0.000, 0.000, 17:44:33.377
151, -507.58, -98.38, 262.16, -3230.91, 0.000, 0.000, 0.000, 17:44:33.395
152, -485.09, -79.42, 266.98, -3394.03, 0.000, 0.000, 0.000, 17:44:33.395
153, -437.96, -59.60, 237.07, -3421.79, 0.000, 0.000, 0.000, 17:44:33.406
154, -480.98, -91.75, 216.71, -3353.86, 0.000, 0.000, 0.000, 17:44:33.406
155, -525.18, -109.06, 241.43, -3245.42, 0.000, 0.000, 0.000, 17:44:33.407
156, -476.79, -81.14, 267.37, -3299.86, 0.000, 0.000, 0.000, 17:44:33.407
157, -436.30, -63.00, 246.65, -3398.28, 0.000, 0.000, 0.000, 17:44:33.421
158, -485.01, -87.19, 240.28, -3356.09, 0.000, 0.000, 0.000, 17:44:33.422
159, -517.80, -107.55, 254.07, -3202.29, 0.000, 0.000, 0.000, 17:44:33.436
160, -481.01, -83.19, 271.16, -3300.08, 0.000, 0.000, 0.000, 17:44:33.436
161, -444.36, -60.92, 233.94, -3421.50, 0.000, 0.000, 0.000, 17:44:33.437
162, -487.22, -87.56, 217.66, -3324.28, 0.000, 0.000, 0.000, 17:44:33.437
163, -518.63, -104.00, 252.26, -3241.62, 0.000, 0.000, 0.000, 17:44:33.451
164, -495.21, -82.50, 271.51, -3416.36, 0.000, 0.000, 0.000, 17:44:33.451
165, -439.15, -56.17, 247.52, -3388.99, 0.000, 0.000, 0.000, 17:44:33.466
166, -473.96, -84.56, 226.68, -3318.85, 0.000, 0.000, 0.000, 17:44:33.466
167, -516.81, -104.66, 252.47, -3259.45, 0.000, 0.000, 0.000, 17:44:33.467
168, -469.51, -75.35, 266.50, -3294.87, 0.000, 0.000, 0.000, 17:44:33.467
169, -439.70, -65.12, 241.68, -3406.42, 0.000, 0.000, 0.000, 17:44:33.482
170, -478.34, -88.17, 238.80, -3371.25, 0.000, 0.000, 0.000, 17:44:33.482
171, -518.48, -105.11, 248.15, -3215.87, 0.000, 0.000, 0.000, 17:44:33.496
172, -482.90, -77.38, 269.76, -3303.98, 0.000, 0.000, 0.000, 17:44:33.496
173, -432.12, -54.60, 260.65, -3406.15, 0.000, 0.000, 0.000, 17:44:33.497
174, -472.02, -80.43, 244.40, -3305.76, 0.000, 0.000, 0.000, 17:44:33.497
175, -520.04, -104.32, 232.86, -3225.10, 0.000, 0.000, 0.000, 17:44:33.511
176, -483.11, -81.87, 268.51, -3379.74, 0.000, 0.000, 0.000, 17:44:33.511
177, -442.59, -61.52, 250.27, -3412.02, 0.000, 0.000, 0.000, 17:44:33.526
178, -480.90, -90.25, 223.10, -3333.49, 0.000, 0.000, 0.000, 17:44:33.527
179, -521.92, -106.56, 244.07, -3265.17, 0.000, 0.000, 0.000, 17:44:33.527
180, -490.99, -86.90, 251.92, -3305.08, 0.000, 0.000, 0.000, 17:44:33.527
181, -449.13, -69.93, 239.23, -3441.11, 0.000, 0.000, 0.000, 17:44:33.542
182, -493.48, -94.59, 234.64, -3388.24, 0.000, 0.000, 0.000, 17:44:33.542
183, -512.87, -104.92, 249.61, -3213.70, 0.000, 0.000, 0.000, 17:44:33.556
184, -475.72, -76.32, 270.56, -3311.36, 0.000, 0.000, 0.000, 17:44:33.556
185, -435.92, -59.86, 238.54, -3401.88, 0.000, 0.000, 0.000, 17:44:33.557
186, -475.41, -85.82, 224.13, -3313.63, 0.000, 0.000, 0.000, 17:44:33.557
187, -520.38, -111.85, 251.82, -3239.99, 0.000, 0.000, 0.000, 17:44:33.571
188, -488.25, -84.16, 272.31, -3376.53, 0.000, 0.000, 0.000, 17:44:33.572
189, -440.44, -66.12, 231.62, -3398.28, 0.000, 0.000, 0.000, 17:44:33.586
190, -474.65, -85.89, 231.96, -3358.48, 0.000, 0.000, 0.000, 17:44:33.586
191, -512.16, -104.76, 262.75, -3262.68, 0.000, 0.000, 0.000, 17:44:33.587
192, -481.64, -78.89, 261.45, -3288.83, 0.000, 0.000, 0.000, 17:44:33.587
193, -437.23, -52.86, 239.60, -3425.76, 0.000, 0.000, 0.000, 17:44:33.601
194, -477.13, -88.52, 240.24, -3393.58, 0.000, 0.000, 0.000, 17:44:33.601
195, -512.23, -106.07, 249.28, -3211.96, 0.000, 0.000, 0.000, 17:44:33.616
196, -477.82, -80.49, 260.44, -3310.58, 0.000, 0.000, 0.000, 17:44:33.616
197, -433.08, -55.64, 240.92, -3429.45, 0.000, 0.000, 0.000, 17:44:33.617
198, -470.22, -80.23, 217.39, -3298.06, 0.000, 0.000, 0.000, 17:44:33.617
199, -500.31, -92.35, 251.50, -3204.31, 0.000, 0.000, 0.000, 17:44:33.631
200, -478.36, -73.26, 268.45, -3343.31, 0.000, 0.000, 0.000, 17:44:33.631
0, -429.23, -50.34, 236.98, -3363.74, 0.000, 0.000, 0.000, 17:44:33.632
1, -472.40, -82.00, 222.27, -3323.29, 0.000, 0.000, 0.000, 17:44:33.646
2, -516.66, -102.48, 250.40, -3277.68, 0.000, 0.000, 0.000, 17:44:33.646
3, -476.97, -75.91, 264.09, -3302.93, 0.000, 0.000, 0.000, 17:44:33.676
4, -428.21, -56.17, 246.69, -3388.64, 0.000, 0.000, 0.000, 17:44:33.676
5, -464.24, -75.31, 240.91, -3349.19, 0.000, 0.000, 0.000, 17:44:33.677
6, -498.89, -94.77, 265.98, -3238.58, 0.000, 0.000, 0.000, 17:44:33.677
7, -477.01, -81.10, 280.20, -3316.51, 0.000, 0.000, 0.000, 17:44:33.677
8, -439.12, -59.45, 243.94, -3399.41, 0.000, 0.000, 0.000, 17:44:33.678
9, -468.74, -83.75, 222.42, -3302.88, 0.000, 0.000, 0.000, 17:44:33.678
10, -512.92, -102.35, 245.97, -3246.37, 0.000, 0.000, 0.000, 17:44:33.679
11, -499.19, -88.76, 280.18, -3495.44, 0.000, 0.000, 0.000, 17:44:33.691
12, -430.78, -48.06, 241.64, -3382.03, 0.000, 0.000, 0.000, 17:44:33.691
13, -472.30, -85.62, 231.73, -3312.18, 0.000, 0.000, 0.000, 17:44:33.706
14, -515.42, -104.83, 254.14, -3222.96, 0.000, 0.000, 0.000, 17:44:33.706
15, -474.84, -76.69, 264.79, -3265.74, 0.000, 0.000, 0.000, 17:44:33.721
16, -442.19, -64.01, 243.11, -3387.95, 0.000, 0.000, 0.000, 17:44:33.721
17, -475.29, -88.11, 230.18, -3321.33, 0.000, 0.000, 0.000, 17:44:33.722
18, -503.84, -95.74, 254.66, -3186.54, 0.000, 0.000, 0.000, 17:44:33.722
19, -477.19, -79.11, 267.29, -3314.64, 0.000, 0.000, 0.000, 17:44:33.736
20, -446.85, -61.02, 255.28, -3465.35, 0.000, 0.000, 0.000, 17:44:33.736
21, -465.71, -80.08, 230.66, -3295.23, 0.000, 0.000, 0.000, 17:44:33.751
22, -513.21, -100.76, 248.90, -3222.34, 0.000, 0.000, 0.000, 17:44:33.751
23, -489.51, -86.53, 262.57, -3364.60, 0.000, 0.000, 0.000, 17:44:33.752
24, -441.09, -60.15, 243.44, -3404.09, 0.000, 0.000, 0.000, 17:44:33.752
25, -471.20, -78.38, 237.72, -3323.14, 0.000, 0.000, 0.000, 17:44:33.766
26, -515.33, -99.41, 262.60, -3298.84, 0.000, 0.000, 0.000, 17:44:33.767
27, -476.29, -81.22, 257.04, -3325.45, 0.000, 0.000, 0.000, 17:44:33.781
28, -440.91, -67.65, 230.02, -3408.79, 0.000, 0.000, 0.000, 17:44:33.782
29, -479.63, -90.78, 217.66, -3332.47, 0.000, 0.000, 0.000, 17:44:33.782
30, -510.28, -98.11, 248.36, -3230.31, 0.000, 0.000, 0.000, 17:44:33.782
31, -484.71, -77.42, 258.63, -3358.62, 0.000, 0.000, 0.000, 17:44:33.796
32, -450.15, -65.88, 253.92, -3485.89, 0.000, 0.000, 0.000, 17:44:33.796
33, -485.40, -92.63, 214.04, -3377.54, 0.000, 0.000, 0.000, 17:44:33.811
34, -523.54, -113.52, 256.47, -3277.97, 0.000, 0.000, 0.000, 17:44:33.811
35, -492.10, -90.06, 268.43, -3392.16, 0.000, 0.000, 0.000, 17:44:33.812
36, -445.77, -68.59, 235.03, -3429.58, 0.000, 0.000, 0.000, 17:44:33.812
37, -475.38, -85.60, 230.56, -3354.19, 0.000, 0.000, 0.000, 17:44:33.826
38, -533.60, -109.16, 256.15, -3296.45, 0.000, 0.000, 0.000, 17:44:33.826
39, -479.39, -80.50, 271.10, -3316.59, 0.000, 0.000, 0.000, 17:44:33.841
40, -437.37, -57.85, 242.26, -3413.02, 0.000, 0.000, 0.000, 17:44:33.841
41, -467.80, -85.10, 242.08, -3313.87, 0.000, 0.000, 0.000, 17:44:33.842
42, -501.61, -100.06, 261.52, -3192.68, 0.000, 0.000, 0.000, 17:44:33.842
43, -473.42, -76.35, 266.26, -3328.97, 0.000, 0.000, 0.000, 17:44:33.857
44, -446.73, -63.63, 246.29, -3477.50, 0.000, 0.000, 0.000, 17:44:33.857
45, -480.31, -85.91, 229.93, -3317.38, 0.000, 0.000, 0.000, 17:44:33.871
46, -502.60, -94.82, 262.59, -3216.42, 0.000, 0.000, 0.000, 17:44:33.871
47, -483.70, -78.45, 279.18, -3342.97, 0.000, 0.000, 0.000, 17:44:33.872
48, -433.31, -53.96, 254.15, -3377.21, 0.000, 0.000, 0.000, 17:44:33.872
49, -465.78, -80.48, 228.43, -3327.11, 0.000, 0.000, 0.000, 17:44:33.886
50, -512.12, -96.31, 256.09, -3282.73, 0.000, 0.000, 0.000, 17:44:33.886
51, -470.54, -73.59, 269.63, -3300.48, 0.000, 0.000, 0.000, 17:44:33.901
52, -432.85, -57.10, 244.83, -3421.11, 0.000, 0.000, 0.000, 17:44:33.902
53, -474.91, -81.93, 220.73, -3366.29, 0.000, 0.000, 0.000, 17:44:33.902
54, -509.70, -97.86, 247.52, -3223.06, 0.000, 0.000, 0.000, 17:44:33.902
55, -477.01, -76.01, 257.42, -3337.79, 0.000, 0.000, 0.000, 17:44:33.916
56, -445.46, -64.34, 238.40, -3480.77, 0.000, 0.000, 0.000, 17:44:33.917
57, -466.69, -80.37, 228.15, -3313.28, 0.000, 0.000, 0.000, 17:44:33.931
58, -510.76, -102.85, 254.54, -3229.25, 0.000, 0.000, 0.000, 17:44:33.931
59, -474.71, -74.16, 277.76, -3319.74, 0.000, 0.000, 0.000, 17:44:33.932
60, -436.57, -53.14, 241.59, -3400.58, 0.000, 0.000, 0.000, 17:44:33.932
61, -473.91, -88.58, 213.88, -3378.03, 0.000, 0.000, 0.000, 17:44:33.946
62, -521.21, -106.28, 256.23, -3299.68, 0.000, 0.000, 0.000, 17:44:33.947
63, -472.76, -76.07, 274.55, -3305.32, 0.000, 0.000, 0.000, 17:44:33.961
64, -435.68, -62.30, 248.89, -3420.97, 0.000, 0.000, 0.000, 17:44:33.961
65, -475.49, -88.19, 229.80, -3348.15, 0.000, 0.000, 0.000, 17:44:33.962
66, -517.69, -108.20, 248.22, -3214.58, 0.000, 0.000, 0.000, 17:44:33.962
67, -481.68, -80.77, 261.58, -3340.01, 0.000, 0.000, 0.000, 17:44:33.991
68, -445.86, -61.77, 252.87, -3465.64, 0.000, 0.000, 0.000, 17:44:33.992
69, -473.49, -85.08, 233.67, -3313.97, 0.000, 0.000, 0.000, 17:44:33.993
70, -516.20, -101.24, 261.01, -3222.97, 0.000, 0.000, 0.000, 17:44:33.993
71, -482.72, -82.80, 258.38, -3264.26, 0.000, 0.000, 0.000, 17:44:33.993
72, -431.89, -58.44, 241.80, -3343.59, 0.000, 0.000, 0.000, 17:44:33.993
73, -472.70, -80.55, 225.87, -3318.37, 0.000, 0.000, 0.000, 17:44:34.006
74, -526.78, -105.73, 258.93, -3343.26, 0.000, 0.000, 0.000, 17:44:34.006
75, -479.78, -79.45, 267.36, -3286.53, 0.000, 0.000, 0.000, 17:44:34.021
76, -443.86, -62.32, 243.81, -3407.53, 0.000, 0.000, 0.000, 17:44:34.021
77, -478.22, -82.95, 227.95, -3332.36, 0.000, 0.000, 0.000, 17:44:34.022
78, -510.40, -96.19, 251.37, -3220.57, 0.000, 0.000, 0.000, 17:44:34.022
79, -488.24, -79.74, 265.17, -3321.65, 0.000, 0.000, 0.000, 17:44:34.037
80, -453.52, -68.92, 248.84, -3498.58, 0.000, 0.000, 0.000, 17:44:34.037
81, -472.70, -78.37, 227.00, -3295.73, 0.000, 0.000, 0.000, 17:44:34.051
82, -514.31, -99.68, 259.16, -3226.72, 0.000, 0.000, 0.000, 17:44:34.051
83, -481.84, -78.15, 278.49, -3309.09, 0.000, 0.000, 0.000, 17:44:34.052
84, -432.87, -57.44, 241.61, -3386.73, 0.000, 0.000, 0.000, 17:44:34.052
85, -466.15, -78.89, 232.62, -3331.77, 0.000, 0.000, 0.000, 17:44:34.066
86, -519.55, -103.50, 262.23, -3280.80, 0.000, 0.000, 0.000, 17:44:34.067
87, -485.58, -74.94, 264.61, -3298.60, 0.000, 0.000, 0.000, 17:44:34.081
88, -439.38, -54.56, 236.97, -3410.02, 0.000, 0.000, 0.000, 17:44:34.082
89, -477.65, -82.91, 228.82, -3336.85, 0.000, 0.000, 0.000, 17:44:34.082
90, -510.61, -101.08, 242.69, -3195.52, 0.000, 0.000, 0.000, 17:44:34.082
91, -482.19, -80.98, 256.33, -3321.38, 0.000, 0.000, 0.000, 17:44:34.097
92, -434.45, -52.51, 248.42, -3431.71, 0.000, 0.000, 0.000, 17:44:34.097
93, -467.73, -88.37, 220.22, -3320.66, 0.000, 0.000, 0.000, 17:44:34.111
94, -511.53, -107.16, 250.46, -3226.92, 0.000, 0.000, 0.000, 17:44:34.111
95, -485.89, -84.25, 256.04, -3359.77, 0.000, 0.000, 0.000, 17:44:34.112
96, -435.73, -61.03, 239.42, -3396.19, 0.000, 0.000, 0.000, 17:44:34.112
97, -468.21, -80.93, 229.62, -3310.82, 0.000, 0.000, 0.000, 17:44:34.126
98, -514.67, -104.56, 269.02, -3282.58, 0.000, 0.000, 0.000, 17:44:34.126
99, -472.39, -71.86, 270.26, -3291.89, 0.000, 0.000, 0.000, 17:44:34.141
100, -432.72, -57.99, 247.22, -3415.87, 0.000, 0.000, 0.000, 17:44:34.141
101, -472.74, -80.01, 231.17, -3315.91, 0.000, 0.000, 0.000, 17:44:34.142
102, -497.94, -88.99, 257.90, -3175.43, 0.000, 0.000, 0.000, 17:44:34.142
103, -478.18, -84.16, 263.00, -3308.56, 0.000, 0.000, 0.000, 17:44:34.156
104, -443.48, -61.86, 240.23, -3445.88, 0.000, 0.000, 0.000, 17:44:34.156
105, -457.97, -70.80, 228.36, -3270.12, 0.000, 0.000, 0.000, 17:44:34.171
106, -505.67, -89.88, 250.02, -3218.42, 0.000, 0.000, 0.000, 17:44:34.171
107, -482.30, -75.42, 266.37, -3320.27, 0.000, 0.000, 0.000, 17:44:34.172
108, -433.82, -48.72, 238.63, -3391.67, 0.000, 0.000, 0.000, 17:44:34.172
109, -468.40, -75.80, 223.46, -3335.20, 0.000, 0.000, 0.000, 17:44:34.186
110, -514.49, -93.61, 258.23, -3298.67, 0.000, 0.000, 0.000, 17:44:34.187
111, -482.44, -77.12, 266.22, -3309.18, 0.000, 0.000, 0.000, 17:44:34.201
112, -439.39, -59.30, 233.84, -3411.32, 0.000, 0.000, 0.000, 17:44:34.201
113, -473.79, -80.13, 223.83, -3341.26, 0.000, 0.000, 0.000, 17:44:34.202
114, -507.67, -98.32, 235.64, -3196.20, 0.000, 0.000, 0.000, 17:44:34.202
115, -475.08, -80.59, 254.35, -3298.43, 0.000, 0.000, 0.000, 17:44:34.216
116, -437.36, -57.27, 252.21, -3464.59, 0.000, 0.000, 0.000, 17:44:34.216
117, -467.70, -86.66, 212.24, -3319.26, 0.000, 0.000, 0.000, 17:44:34.231
118, -501.44, -99.25, 247.77, -3210.97, 0.000, 0.000, 0.000, 17:44:34.232
119, -473.79, -81.14, 266.57, -3326.80, 0.000, 0.000, 0.000, 17:44:34.232
120, -430.82, -61.01, 247.41, -3376.22, 0.000, 0.000, 0.000, 17:44:34.232
121, -469.14, -84.72, 232.93, -3348.42, 0.000, 0.000, 0.000, 17:44:34.246
122, -520.26, -114.12, 245.33, -3295.60, 0.000, 0.000, 0.000, 17:44:34.246
123, -470.14, -80.65, 258.52, -3286.04, 0.000, 0.000, 0.000, 17:44:34.261
124, -427.51, -54.30, 248.20, -3399.74, 0.000, 0.000, 0.000, 17:44:34.261
125, -475.87, -88.00, 236.62, -3369.99, 0.000, 0.000, 0.000, 17:44:34.262
126, -505.09, -98.46, 254.26, -3175.01, 0.000, 0.000, 0.000, 17:44:34.262
127, -483.66, -83.36, 258.99, -3268.17, 0.000, 0.000, 0.000, 17:44:34.276
128, -438.56, -60.16, 253.56, -3463.93, 0.000, 0.000, 0.000, 17:44:34.276
129, -468.48, -86.04, 229.19, -3328.44, 0.000, 0.000, 0.000, 17:44:34.291
130, -514.18, -110.22, 241.44, -3248.89, 0.000, 0.000, 0.000, 17:44:34.291
131, -484.66, -77.60, 262.88, -3368.72, 0.000, 0.000, 0.000, 17:44:34.292
132, -442.15, -66.08, 238.64, -3434.50, 0.000, 0.000, 0.000, 17:44:34.292
133, -468.70, -80.51, 222.00, -3338.72, 0.000, 0.000, 0.000, 17:44:34.306
134, -517.74, -103.28, 255.14, -3299.01, 0.000, 0.000, 0.000, 17:44:34.306
135, -482.81, -80.81, 253.93, -3300.66, 0.000, 0.000, 0.000, 17:44:34.321
136, -432.71, -58.17, 242.06, -3404.90, 0.000, 0.000, 0.000, 17:44:34.321
137, -473.26, -83.61, 232.25, -3386.67, 0.000, 0.000, 0.000, 17:44:34.322
138, -513.36, -101.09, 264.63, -3212.86, 0.000, 0.000, 0.000, 17:44:34.322
139, -482.97, -85.73, 271.30, -3300.09, 0.000, 0.000, 0.000, 17:44:34.336
140, -428.20, -47.69, 250.68, -3480.33, 0.000, 0.000, 0.000, 17:44:34.336
141, -459.74, -72.93, 228.17, -3301.58, 0.000, 0.000, 0.000, 17:44:34.351
142, -498.32, -92.93, 261.63, -3209.49, 0.000, 0.000, 0.000, 17:44:34.351
143, -479.04, -80.36, 252.37, -3344.90, 0.000, 0.000, 0.000, 17:44:34.352
144, -431.29, -54.98, 234.76, -3439.53, 0.000, 0.000, 0.000, 17:44:34.352
145, -466.18, -77.98, 227.88, -3346.30, 0.000, 0.000, 0.000, 17:44:34.367
146, -517.03, -101.26, 270.14, -3282.70, 0.000, 0.000, 0.000, 17:44:34.367
147, -479.40, -76.58, 265.75, -3288.23, 0.000, 0.000, 0.000, 17:44:34.381
148, -432.38, -53.69, 233.70, -3390.34, 0.000, 0.000, 0.000, 17:44:34.382
149, -476.39, -81.15, 222.22, -3357.14, 0.000, 0.000, 0.000, 17:44:34.382
150, -507.23, -96.45, 254.08, -3227.09, 0.000, 0.000, 0.000, 17:44:34.382
151, -483.11, -74.90, 270.05, -3323.35, 0.000, 0.000, 0.000, 17:44:34.396
152, -444.98, -65.06, 243.39, -3450.56, 0.000, 0.000, 0.000, 17:44:34.396
153, -465.38, -79.58, 220.62, -3298.67, 0.000, 0.000, 0.000, 17:44:34.411
154, -513.21, -101.34, 241.70, -3251.57, 0.000, 0.000, 0.000, 17:44:34.411
155, -483.95, -82.72, 268.36, -3278.12, 0.000, 0.000, 0.000, 17:44:34.412
156, -438.78, -62.18, 241.64, -3366.51, 0.000, 0.000, 0.000, 17:44:34.412
157, -467.65, -77.94, 232.09, -3330.78, 0.000, 0.000, 0.000, 17:44:34.426
158, -524.15, -109.81, 267.91, -3294.32, 0.000, 0.000, 0.000, 17:44:34.427
159, -487.53, -85.21, 271.65, -3291.36, 0.000, 0.000, 0.000, 17:44:34.441
160, -440.52, -60.34, 238.18, -3386.73, 0.000, 0.000, 0.000, 17:44:34.441
161, -477.19, -83.50, 234.01, -3355.53, 0.000, 0.000, 0.000, 17:44:34.442
162, -506.38, -98.78, 252.70, -3230.67, 0.000, 0.000, 0.000, 17:44:34.442
163, -486.32, -79.49, 265.38, -3330.23, 0.000, 0.000, 0.000, 17:44:34.456
164, -435.53, -56.56, 262.93, -3452.82, 0.000, 0.000, 0.000, 17:44:34.456
165, -467.15, -80.54, 233.94, -3314.76, 0.000, 0.000, 0.000, 17:44:34.471
166, -511.07, -98.88, 254.17, -3228.07, 0.000, 0.000, 0.000, 17:44:34.471
167, -481.47, -78.32, 276.12, -3322.58, 0.000, 0.000, 0.000, 17:44:34.472
168, -438.36, -59.23, 232.49, -3378.97, 0.000, 0.000, 0.000, 17:44:34.472
169, -466.32, -78.25, 227.91, -3328.30, 0.000, 0.000, 0.000, 17:44:34.486
170, -521.32, -102.37, 255.85, -3283.65, 0.000, 0.000, 0.000, 17:44:34.486
171, -471.00, -68.98, 272.82, -3263.30, 0.000, 0.000, 0.000, 17:44:34.501
172, -434.24, -51.20, 247.44, -3373.76, 0.000, 0.000, 0.000, 17:44:34.501
173, -473.44, -77.40, 238.19, -3341.44, 0.000, 0.000, 0.000, 17:44:34.502
174, -510.23, -97.20, 264.61, -3235.65, 0.000, 0.000, 0.000, 17:44:34.502
175, -479.96, -75.62, 279.71, -3323.35, 0.000, 0.000, 0.000, 17:44:34.516
176, -445.82, -62.64, 232.20, -3493.72, 0.000, 0.000, 0.000, 17:44:34.517
177, -464.94, -78.89, 222.79, -3329.94, 0.000, 0.000, 0.000, 17:44:34.531
178, -515.28, -98.43, 255.57, -3251.70, 0.000, 0.000, 0.000, 17:44:34.531
179, -492.10, -84.68, 265.73, -3387.28, 0.000, 0.000, 0.000, 17:44:34.532
180, -446.17, -64.67, 243.71, -3442.83, 0.000, 0.000, 0.000, 17:44:34.532
181, -475.51, -87.47, 222.99, -3338.97, 0.000, 0.000, 0.000, 17:44:34.546
182, -516.57, -104.95, 261.90, -3291.00, 0.000, 0.000, 0.000, 17:44:34.547
183, -485.35, -82.15, 270.60, -3304.26, 0.000, 0.000, 0.000, 17:44:34.561
184, -432.91, -54.03, 237.64, -3431.57, 0.000, 0.000, 0.000, 17:44:34.562
185, -470.73, -83.23, 224.45, -3374.06, 0.000, 0.000, 0.000, 17:44:34.562
186, -506.52, -93.28, 257.99, -3241.71, 0.000, 0.000, 0.000, 17:44:34.562
187, -482.05, -80.57, 264.34, -3329.22, 0.000, 0.000, 0.000, 17:44:34.576
188, -445.57, -55.01, 250.78, -3486.94, 0.000, 0.000, 0.000, 17:44:34.576
189, -461.23, -75.84, 240.09, -3313.69, 0.000, 0.000, 0.000, 17:44:34.591
190, -511.50, -104.24, 238.38, -3252.26, 0.000, 0.000, 0.000, 17:44:34.591
191, -480.70, -78.14, 264.85, -3321.43, 0.000, 0.000, 0.000, 17:44:34.592
192, -426.50, -59.50, 234.89, -3381.19, 0.000, 0.000, 0.000, 17:44:34.592
193, -461.03, -74.23, 222.27, -3364.62, 0.000, 0.000, 0.000, 17:44:34.606
194, -512.74, -99.72, 254.82, -3311.68, 0.000, 0.000, 0.000, 17:44:34.607
195, -474.33, -78.29, 268.48, -3276.10, 0.000, 0.000, 0.000, 17:44:34.636
196, -433.25, -57.86, 245.98, -3404.17, 0.000, 0.000, 0.000, 17:44:34.636
197, -469.22, -82.34, 225.05, -3365.58, 0.000, 0.000, 0.000, 17:44:34.637
198, -512.55, -104.90, 256.75, -3272.46, 0.000, 0.000, 0.000, 17:44:34.637
199, -480.44, -75.09, 254.93, -3337.96, 0.000, 0.000, 0.000, 17:44:34.637
200, -443.19, -61.46, 231.96, -3418.23, 0.000, 0.000, 0.000, 17:44:34.637
0, -462.54, -75.22, 231.71, -3310.31, 0.000, 0.000, 0.000, 17:44:34.638
1, -518.23, -108.01, 248.06, -3255.12, 0.000, 0.000, 0.000, 17:44:34.652
2, -500.16, -89.48, 282.71, -3485.67, 0.000, 0.000, 0.000, 17:44:34.652
3, -436.37, -57.73, 231.38, -3387.50, 0.000, 0.000, 0.000, 17:44:34.666
4, -451.38, -70.00, 235.20, -3290.87, 0.000, 0.000, 0.000, 17:44:34.666
5, -507.68, -94.66, 263.19, -3243.60, 0.000, 0.000, 0.000, 17:44:34.667
6, -471.43, -72.51, 268.34, -3288.14, 0.000, 0.000, 0.000, 17:44:34.667
7, -426.85, -46.65, 250.27, -3395.16, 0.000, 0.000, 0.000, 17:44:34.681
8, -475.50, -77.66, 231.47, -3390.70, 0.000, 0.000, 0.000, 17:44:34.681
9, -502.26, -93.74, 251.85, -3215.71, 0.000, 0.000, 0.000, 17:44:34.696
10, -477.76, -72.21, 269.04, -3321.32, 0.000, 0.000, 0.000, 17:44:34.696
11, -438.69, -52.98, 253.06, -3412.92, 0.000, 0.000, 0.000, 17:44:34.697
12, -463.40, -83.17, 232.70, -3322.81, 0.000, 0.000, 0.000, 17:44:34.697
13, -504.76, -100.45, 257.33, -3235.06, 0.000, 0.000, 0.000, 17:44:34.711
14, -474.56, -79.08, 271.70, -3349.51, 0.000, 0.000, 0.000, 17:44:34.711
15, -422.87, -51.89, 244.02, -3384.82, 0.000, 0.000, 0.000, 17:44:34.726
16, -455.71, -72.57, 220.99, -3345.91, 0.000, 0.000, 0.000, 17:44:34.726
17, -505.64, -99.19, 243.55, -3261.77, 0.000, 0.000, 0.000, 17:44:34.727
18, -474.46, -67.73, 266.99, -3306.77, 0.000, 0.000, 0.000, 17:44:34.727
19, -433.61, -49.25, 242.47, -3410.12, 0.000, 0.000, 0.000, 17:44:34.741
20, -471.37, -77.35, 236.08, -3381.73, 0.000, 0.000, 0.000, 17:44:34.742
21, -508.19, -92.80, 245.41, -3204.08, 0.000, 0.000, 0.000, 17:44:34.756
22, -485.83, -81.95, 268.51, -3297.30, 0.000, 0.000, 0.000, 17:44:34.756
23, -442.79, -65.67, 240.24, -3443.22, 0.000, 0.000, 0.000, 17:44:34.757
24, -464.67, -84.11, 225.83, -3333.20, 0.000, 0.000, 0.000, 17:44:34.757
25, -506.91, -100.16, 249.45, -3270.77, 0.000, 0.000, 0.000, 17:44:34.771
26, -490.48, -83.55, 270.70, -3358.55, 0.000, 0.000, 0.000, 17:44:34.771
27, -434.71, -59.56, 235.01, -3397.88, 0.000, 0.000, 0.000, 17:44:34.786
28, -459.05, -73.78, 228.56, -3359.03, 0.000, 0.000, 0.000, 17:44:34.786
29, -512.05, -104.55, 247.46, -3285.51, 0.000, 0.000, 0.000, 17:44:34.787
30, -473.69, -75.76, 255.33, -3276.20, 0.000, 0.000, 0.000, 17:44:34.787
31, -423.12, -46.49, 236.68, -3386.80, 0.000, 0.000, 0.000, 17:44:34.801
32, -467.48, -82.72, 229.75, -3409.61, 0.000, 0.000, 0.000, 17:44:34.802
33, -505.20, -99.32, 257.84, -3243.11, 0.000, 0.000, 0.000, 17:44:34.816
34, -480.88, -82.15, 261.92, -3308.16, 0.000, 0.000, 0.000, 17:44:34.816
35, -445.55, -64.30, 245.93, -3476.83, 0.000, 0.000, 0.000, 17:44:34.819
36, -465.68, -81.55, 224.31, -3353.49, 0.000, 0.000, 0.000, 17:44:34.819
37, -509.08, -104.43, 243.42, -3245.71, 0.000, 0.000, 0.000, 17:44:34.831
38, -490.64, -77.65, 271.38, -3370.48, 0.000, 0.000, 0.000, 17:44:34.832
39, -433.88, -52.85, 238.55, -3381.48, 0.000, 0.000, 0.000, 17:44:34.846
40, -468.32, -82.51, 217.24, -3354.44, 0.000, 0.000, 0.000, 17:44:34.846
41, -506.48, -98.12, 252.55, -3234.78, 0.000, 0.000, 0.000, 17:44:34.847
42, -473.99, -74.81, 261.09, -3285.89, 0.000, 0.000, 0.000, 17:44:34.847
43, -436.60, -62.02, 243.30, -3422.71, 0.000, 0.000, 0.000, 17:44:34.861
44, -466.20, -76.71, 232.63, -3381.08, 0.000, 0.000, 0.000, 17:44:34.861
45, -509.23, -101.37, 253.29, -3229.62, 0.000, 0.000, 0.000, 17:44:34.876
46, -475.35, -75.50, 269.93, -3286.37, 0.000, 0.000, 0.000, 17:44:34.876
47, -430.97, -52.31, 244.95, -3388.77, 0.000, 0.000, 0.000, 17:44:34.877
48, -464.58, -76.40, 233.33, -3335.34, 0.000, 0.000, 0.000, 17:44:34.877
49, -513.30, -96.16, 261.42, -3252.70, 0.000, 0.000, 0.000, 17:44:34.891
50, -500.78, -96.61, 261.14, -3378.36, 0.000, 0.000, 0.000, 17:44:34.892
51, -440.51, -53.39, 249.36, -3403.90, 0.000, 0.000, 0.000, 17:44:34.906
52, -472.60, -78.72, 223.82, -3329.50, 0.000, 0.000, 0.000, 17:44:34.906
53, -521.60, -109.76, 240.83, -3259.84, 0.000, 0.000, 0.000, 17:44:34.907
54, -480.55, -75.62, 262.27, -3264.65, 0.000, 0.000, 0.000, 17:44:34.907
55, -435.22, -54.62, 241.94, -3404.80, 0.000, 0.000, 0.000, 17:44:34.921
56, -478.16, -81.89, 235.56, -3395.85, 0.000, 0.000, 0.000, 17:44:34.922
57, -516.26, -105.23, 247.81, -3238.14, 0.000, 0.000, 0.000, 17:44:34.951
58, -489.09, -84.53, 278.19, -3298.09, 0.000, 0.000, 0.000, 17:44:34.951
59, -433.87, -57.65, 244.70, -3402.96, 0.000, 0.000, 0.000, 17:44:34.952
60, -467.38, -80.20, 227.23, -3295.77, 0.000, 0.000, 0.000, 17:44:34.952
61, -516.53, -109.69, 251.52, -3229.68, 0.000, 0.000, 0.000, 17:44:34.952
62, -490.94, -81.28, 279.02, -3271.03, 0.000, 0.000, 0.000, 17:44:34.952
63, -442.71, -56.85, 249.11, -3388.31, 0.000, 0.000, 0.000, 17:44:34.953
64, -468.04, -77.77, 227.03, -3348.48, 0.000, 0.000, 0.000, 17:44:34.953
67, -417.55, -54.37, 199.05, -3415.93, 0.000, 0.000, 0.000, 17:44:34.982
68, -438.36, -67.22, 193.64, -3396.49, 0.000, 0.000, 0.000, 17:44:34.982
69, -488.85, -93.27, 200.49, -3280.91, 0.000, 0.000, 0.000, 17:44:34.996
70, -457.41, -71.22, 225.47, -3363.19, 0.000, 0.000, 0.000, 17:44:34.996
71, -418.67, -52.50, 202.85, -3479.44, 0.000, 0.000, 0.000, 17:44:34.997
72, -447.87, -77.92, 188.12, -3428.45, 0.000, 0.000, 0.000, 17:44:34.997
73, -494.94, -96.21, 215.15, -3359.68, 0.000, 0.000, 0.000, 17:44:35.011
74, -480.89, -83.66, 226.57, -3460.85, 0.000, 0.000, 0.000, 17:44:35.011
75, -416.56, -48.20, 201.11, -3475.96, 0.000, 0.000, 0.000, 17:44:35.026
76, -437.77, -61.53, 200.91, -3374.70, 0.000, 0.000, 0.000, 17:44:35.026
77, -495.28, -92.55, 217.88, -3312.91, 0.000, 0.000, 0.000, 17:44:35.027
78, -463.52, -74.40, 228.42, -3326.66, 0.000, 0.000, 0.000, 17:44:35.027
79, -409.57, -45.49, 219.24, -3447.77, 0.000, 0.000, 0.000, 17:44:35.042
80, -442.55, -70.95, 199.90, -3440.97, 0.000, 0.000, 0.000, 17:44:35.042
81, -487.33, -94.57, 209.77, -3252.35, 0.000, 0.000, 0.000, 17:44:35.056
82, -465.44, -75.08, 224.58, -3333.71, 0.000, 0.000, 0.000, 17:44:35.056
83, -418.36, -47.17, 209.61, -3452.86, 0.000, 0.000, 0.000, 17:44:35.057
84, -444.14, -73.09, 191.42, -3407.79, 0.000, 0.000, 0.000, 17:44:35.057
85, -490.41, -93.83, 210.74, -3326.35, 0.000, 0.000, 0.000, 17:44:35.071
86, -482.18, -89.12, 229.31, -3450.30, 0.000, 0.000, 0.000, 17:44:35.072
87, -418.27, -51.70, 198.83, -3463.64, 0.000, 0.000, 0.000, 17:44:35.086
88, -446.25, -73.96, 182.87, -3435.74, 0.000, 0.000, 0.000, 17:44:35.086
89, -489.20, -87.16, 214.89, -3328.65, 0.000, 0.000, 0.000, 17:44:35.087
90, -458.48, -70.90, 226.93, -3334.18, 0.000, 0.000, 0.000, 17:44:35.087
91, -430.40, -60.47, 196.52, -3465.79, 0.000, 0.000, 0.000, 17:44:35.102
92, -453.19, -79.21, 193.73, -3497.71, 0.000, 0.000, 0.000, 17:44:35.102
93, -487.18, -91.98, 226.21, -3275.29, 0.000, 0.000, 0.000, 17:44:35.116
94, -468.18, -78.72, 224.51, -3357.39, 0.000, 0.000, 0.000, 17:44:35.117
95, -426.64, -57.59, 207.34, -3502.59, 0.000, 0.000, 0.000, 17:44:35.117
96, -445.00, -71.05, 197.65, -3413.69, 0.000, 0.000, 0.000, 17:44:35.117
97, -499.53, -103.31, 202.86, -3348.67, 0.000, 0.000, 0.000, 17:44:35.131
98, -476.47, -81.88, 224.81, -3452.47, 0.000, 0.000, 0.000, 17:44:35.131
99, -419.83, -55.56, 199.46, -3450.95, 0.000, 0.000, 0.000, 17:44:35.146
100, -438.92, -67.80, 195.52, -3424.66, 0.000, 0.000, 0.000, 17:44:35.146
101, -488.44, -89.00, 221.86, -3337.55, 0.000, 0.000, 0.000, 17:44:35.147
102, -471.68, -78.11, 225.12, -3379.78, 0.000, 0.000, 0.000, 17:44:35.147
103, -418.80, -51.39, 202.29, -3468.23, 0.000, 0.000, 0.000, 17:44:35.161
104, -462.57, -80.59, 186.79, -3501.28, 0.000, 0.000, 0.000, 17:44:35.161
105, -493.33, -99.02, 208.26, -3314.08, 0.000, 0.000, 0.000, 17:44:35.176
106, -469.08, -74.17, 229.63, -3374.80, 0.000, 0.000, 0.000, 17:44:35.176
107, -422.23, -55.69, 209.78, -3469.64, 0.000, 0.000, 0.000, 17:44:35.177
108, -438.75, -75.39, 180.45, -3374.31, 0.000, 0.000, 0.000, 17:44:35.177
109, -489.67, -95.55, 209.98, -3259.18, 0.000, 0.000, 0.000, 17:44:35.191
110, -473.37, -80.56, 237.90, -3417.30, 0.000, 0.000, 0.000, 17:44:35.191
111, -421.60, -60.69, 202.43, -3468.50, 0.000, 0.000, 0.000, 17:44:35.206
112, -449.62, -76.11, 191.73, -3453.86, 0.000, 0.000, 0.000, 17:44:35.207
113, -500.33, -98.68, 228.94, -3354.00, 0.000, 0.000, 0.000, 17:44:35.207
114, -480.76, -85.59, 233.42, -3361.52, 0.000, 0.000, 0.000, 17:44:35.207
115, -421.29, -54.50, 213.90, -3483.01, 0.000, 0.000, 0.000, 17:44:35.221
116, -452.05, -72.06, 206.85, -3473.18, 0.000, 0.000, 0.000, 17:44:35.222
117, -497.35, -93.95, 206.45, -3287.99, 0.000, 0.000, 0.000, 17:44:35.236
118, -468.13, -74.53, 231.73, -3347.70, 0.000, 0.000, 0.000, 17:44:35.236
119, -424.79, -49.30, 221.13, -3477.66, 0.000, 0.000, 0.000, 17:44:35.237
120, -445.63, -71.48, 208.77, -3388.93, 0.000, 0.000, 0.000, 17:44:35.237
121, -492.80, -90.45, 206.62, -3324.14, 0.000, 0.000, 0.000, 17:44:35.251
122, -472.55, -82.35, 230.43, -3417.98, 0.000, 0.000, 0.000, 17:44:35.251
123, -419.11, -51.70, 204.09, -3452.11, 0.000, 0.000, 0.000, 17:44:35.266
124, -439.06, -71.08, 188.76, -3422.43, 0.000, 0.000, 0.000, 17:44:35.266
125, -502.01, -102.23, 212.54, -3327.75, 0.000, 0.000, 0.000, 17:44:35.267
126, -469.21, -84.67, 219.92, -3350.79, 0.000, 0.000, 0.000, 17:44:35.267
127, -418.28, -52.35, 195.14, -3482.07, 0.000, 0.000, 0.000, 17:44:35.281
128, -453.09, -81.40, 189.77, -3470.89, 0.000, 0.000, 0.000, 17:44:35.281
129, -482.14, -92.05, 219.74, -3269.18, 0.000, 0.000, 0.000, 17:44:35.296
130, -464.13, -79.91, 221.73, -3391.93, 0.000, 0.000, 0.000, 17:44:35.296
131, -427.08, -65.31, 198.56, -3489.81, 0.000, 0.000, 0.000, 17:44:35.297
132, -442.09, -72.76, 179.60, -3383.65, 0.000, 0.000, 0.000, 17:44:35.297
133, -477.98, -91.59, 216.92, -3322.47, 0.000, 0.000, 0.000, 17:44:35.311
134, -470.26, -83.06, 237.54, -3447.62, 0.000, 0.000, 0.000, 17:44:35.312
135, -422.91, -54.52, 189.35, -3443.17, 0.000, 0.000, 0.000, 17:44:35.326
136, -438.92, -69.07, 191.73, -3413.28, 0.000, 0.000, 0.000, 17:44:35.326
137, -484.44, -95.32, 213.77, -3324.57, 0.000, 0.000, 0.000, 17:44:35.327
138, -463.12, -74.46, 235.50, -3361.74, 0.000, 0.000, 0.000, 17:44:35.327
139, -414.29, -55.06, 202.98, -3486.03, 0.000, 0.000, 0.000, 17:44:35.341
140, -456.87, -83.32, 189.04, -3495.59, 0.000, 0.000, 0.000, 17:44:35.342
141, -492.91, -99.41, 215.66, -3277.94, 0.000, 0.000, 0.000, 17:44:35.356
142, -466.67, -78.87, 233.76, -3347.51, 0.000, 0.000, 0.000, 17:44:35.356
143, -430.59, -62.66, 208.97, -3494.08, 0.000, 0.000, 0.000, 17:44:35.357
144, -445.26, -80.55, 191.48, -3387.70, 0.000, 0.000, 0.000, 17:44:35.357
145, -495.00, -102.39, 197.72, -3331.27, 0.000, 0.000, 0.000, 17:44:35.371
146, -483.92, -89.76, 226.52, -3450.40, 0.000, 0.000, 0.000, 17:44:35.371
147, -425.16, -58.13, 210.73, -3455.65, 0.000, 0.000, 0.000, 17:44:35.386
148, -450.85, -75.05, 188.93, -3441.72, 0.000, 0.000, 0.000, 17:44:35.386
149, -492.98, -97.01, 216.29, -3317.49, 0.000, 0.000, 0.000, 17:44:35.387
150, -463.99, -72.38, 228.62, -3344.49, 0.000, 0.000, 0.000, 17:44:35.387
151, -418.89, -52.83, 205.58, -3463.03, 0.000, 0.000, 0.000, 17:44:35.401
152, -444.62, -68.55, 198.36, -3471.18, 0.000, 0.000, 0.000, 17:44:35.401
153, -489.13, -95.64, 210.71, -3302.60, 0.000, 0.000, 0.000, 17:44:35.416
154, -471.31, -76.54, 223.61, -3382.33, 0.000, 0.000, 0.000, 17:44:35.416
155, -427.18, -58.27, 209.60, -3501.06, 0.000, 0.000, 0.000, 17:44:35.417
156, -439.14, -68.37, 185.79, -3425.24, 0.000, 0.000, 0.000, 17:44:35.417
157, -485.57, -91.68, 218.58, -3301.68, 0.000, 0.000, 0.000, 17:44:35.431
158, -472.44, -74.00, 239.71, -3412.47, 0.000, 0.000, 0.000, 17:44:35.432
159, -410.70, -43.31, 217.63, -3427.78, 0.000, 0.000, 0.000, 17:44:35.446
160, -439.61, -71.18, 185.64, -3404.12, 0.000, 0.000, 0.000, 17:44:35.446
161, -496.89, -97.44, 217.65, -3323.72, 0.000, 0.000, 0.000, 17:44:35.447
162, -458.13, -63.64, 235.09, -3335.96, 0.000, 0.000, 0.000, 17:44:35.447
163, -418.03, -49.89, 214.40, -3483.67, 0.000, 0.000, 0.000, 17:44:35.461
164, -450.66, -77.38, 203.79, -3499.77, 0.000, 0.000, 0.000, 17:44:35.462
165, -486.68, -94.06, 210.05, -3268.29, 0.000, 0.000, 0.000, 17:44:35.476
166, -466.49, -79.66, 221.40, -3347.20, 0.000, 0.000, 0.000, 17:44:35.476
167, -417.39, -49.46, 212.80, -3494.36, 0.000, 0.000, 0.000, 17:44:35.477
168, -435.90, -69.52, 194.60, -3400.67, 0.000, 0.000, 0.000, 17:44:35.477
169, -481.71, -84.63, 217.41, -3284.55, 0.000, 0.000, 0.000, 17:44:35.491
170, -470.18, -76.41, 228.44, -3385.44, 0.000, 0.000, 0.000, 17:44:35.492
171, -412.04, -49.93, 213.63, -3390.85, 0.000, 0.000, 0.000, 17:44:35.506
172, -431.71, -62.62, 198.28, -3356.75, 0.000, 0.000, 0.000, 17:44:35.506
173, -485.38, -89.69, 216.06, -3303.38, 0.000, 0.000, 0.000, 17:44:35.507
174, -468.44, -79.12, 217.38, -3361.12, 0.000, 0.000, 0.000, 17:44:35.507
175, -425.55, -54.71, 198.49, -3475.39, 0.000, 0.000, 0.000, 17:44:35.521
176, -451.06, -79.20, 194.58, -3492.58, 0.000, 0.000, 0.000, 17:44:35.521
177, -491.71, -100.24, 221.47, -3299.55, 0.000, 0.000, 0.000, 17:44:35.536
178, -473.86, -82.31, 229.74, -3389.75, 0.000, 0.000, 0.000, 17:44:35.536
179, -424.32, -51.80, 209.30, -3526.91, 0.000, 0.000, 0.000, 17:44:35.537
180, -443.23, -70.50, 189.40, -3402.65, 0.000, 0.000, 0.000, 17:44:35.537
181, -497.18, -99.01, 211.36, -3341.13, 0.000, 0.000, 0.000, 17:44:35.551
182, -475.94, -78.29, 230.99, -3432.41, 0.000, 0.000, 0.000, 17:44:35.551
183, -422.01, -52.75, 206.20, -3448.25, 0.000, 0.000, 0.000, 17:44:35.566
184, -441.53, -73.91, 197.89, -3428.63, 0.000, 0.000, 0.000, 17:44:35.566
185, -492.46, -93.22, 210.65, -3346.10, 0.000, 0.000, 0.000, 17:44:35.567
186, -471.41, -74.57, 237.03, -3364.76, 0.000, 0.000, 0.000, 17:44:35.567
187, -424.37, -54.55, 204.81, -3520.81, 0.000, 0.000, 0.000, 17:44:35.596
188, -455.86, -76.99, 197.93, -3544.23, 0.000, 0.000, 0.000, 17:44:35.596
189, -496.17, -93.98, 217.54, -3320.05, 0.000, 0.000, 0.000, 17:44:35.597
190, -475.57, -76.91, 235.15, -3380.14, 0.000, 0.000, 0.000, 17:44:35.597
191, -424.28, -52.60, 200.95, -3476.40, 0.000, 0.000, 0.000, 17:44:35.598
192, -443.28, -71.24, 198.20, -3440.10, 0.000, 0.000, 0.000, 17:44:35.598
193, -486.89, -87.53, 220.26, -3323.01, 0.000, 0.000, 0.000, 17:44:35.611
194, -484.22, -84.23, 240.43, -3469.91, 0.000, 0.000, 0.000, 17:44:35.611
195, -412.39, -45.76, 202.56, -3466.33, 0.000, 0.000, 0.000, 17:44:35.626
196, -434.47, -61.30, 182.79, -3420.18, 0.000, 0.000, 0.000, 17:44:35.626
197, -487.05, -94.01, 210.06, -3331.36, 0.000, 0.000, 0.000, 17:44:35.627
198, -467.81, -73.69, 226.05, -3350.08, 0.000, 0.000, 0.000, 17:44:35.627
199, -427.69, -50.23, 203.73, -3492.25, 0.000, 0.000, 0.000, 17:44:35.641
200, -455.01, -70.28, 200.51, -3490.53, 0.000, 0.000, 0.000, 17:44:35.641
0, -500.85, -97.60, 257.81, -3222.48, 0.000, 0.000, 0.000, 17:44:35.642
1, -487.88, -87.13, 257.17, -3305.41, 0.000, 0.000, 0.000, 17:44:35.656
2, -445.95, -69.19, 249.40, -3460.07, 0.000, 0.000, 0.000, 17:44:35.656
3, -465.33, -81.62, 221.73, -3342.19, 0.000, 0.000, 0.000, 17:44:35.671
4, -505.73, -101.51, 251.47, -3254.62, 0.000, 0.000, 0.000, 17:44:35.672
5, -494.88, -90.72, 271.82, -3309.57, 0.000, 0.000, 0.000, 17:44:35.672
6, -439.44, -56.54, 247.93, -3379.02, 0.000, 0.000, 0.000, 17:44:35.672
7, -459.93, -81.21, 219.23, -3360.47, 0.000, 0.000, 0.000, 17:44:35.686
8, -511.93, -103.46, 253.33, -3271.02, 0.000, 0.000, 0.000, 17:44:35.687
9, -482.36, -81.94, 265.91, -3238.98, 0.000, 0.000, 0.000, 17:44:35.701
10, -429.57, -53.50, 246.44, -3370.84, 0.000, 0.000, 0.000, 17:44:35.701
11, -451.16, -70.13, 227.50, -3337.60, 0.000, 0.000, 0.000, 17:44:35.702
12, -504.91, -104.42, 241.25, -3227.53, 0.000, 0.000, 0.000, 17:44:35.702
13, -484.56, -82.47, 265.38, -3267.96, 0.000, 0.000, 0.000, 17:44:35.716
14, -437.79, -58.95, 254.79, -3436.01, 0.000, 0.000, 0.000, 17:44:35.717
15, -459.64, -80.28, 220.65, -3354.89, 0.000, 0.000, 0.000, 17:44:35.731
16, -497.61, -96.87, 253.77, -3238.91, 0.000, 0.000, 0.000, 17:44:35.731
17, -488.04, -81.18, 270.62, -3290.17, 0.000, 0.000, 0.000, 17:44:35.732
18, -433.38, -57.10, 237.95, -3412.12, 0.000, 0.000, 0.000, 17:44:35.732
19, -448.53, -63.92, 243.43, -3362.25, 0.000, 0.000, 0.000, 17:44:35.746
20, -498.33, -85.77, 266.37, -3253.13, 0.000, 0.000, 0.000, 17:44:35.746
21, -469.61, -73.00, 266.66, -3234.50, 0.000, 0.000, 0.000, 17:44:35.761
22, -428.45, -55.25, 254.09, -3382.41, 0.000, 0.000, 0.000, 17:44:35.761
23, -439.34, -66.09, 241.40, -3344.77, 0.000, 0.000, 0.000, 17:44:35.762
24, -497.39, -90.31, 246.93, -3214.91, 0.000, 0.000, 0.000, 17:44:35.764
25, -480.19, -78.14, 265.96, -3299.25, 0.000, 0.000, 0.000, 17:44:35.776
26, -440.43, -58.21, 251.32, -3474.46, 0.000, 0.000, 0.000, 17:44:35.777
27, -451.48, -66.46, 233.21, -3344.05, 0.000, 0.000, 0.000, 17:44:35.791
28, -504.19, -99.12, 241.41, -3262.50, 0.000, 0.000, 0.000, 17:44:35.791
29, -492.89, -88.85, 254.64, -3320.12, 0.000, 0.000, 0.000, 17:44:35.792
30, -428.20, -46.84, 255.14, -3387.25, 0.000, 0.000, 0.000, 17:44:35.792
31, -460.43, -71.79, 228.51, -3369.98, 0.000, 0.000, 0.000, 17:44:35.806
32, -519.97, -102.29, 243.00, -3331.52, 0.000, 0.000, 0.000, 17:44:35.806
33, -486.56, -80.74, 262.91, -3252.20, 0.000, 0.000, 0.000, 17:44:35.821
34, -438.66, -55.12, 253.58, -3375.13, 0.000, 0.000, 0.000, 17:44:35.821
35, -461.41, -76.33, 245.57, -3362.18, 0.000, 0.000, 0.000, 17:44:35.822
36, -502.81, -96.14, 243.84, -3218.88, 0.000, 0.000, 0.000, 17:44:35.822
37, -489.12, -83.20, 260.18, -3292.28, 0.000, 0.000, 0.000, 17:44:35.836
38, -442.19, -54.11, 253.44, -3460.02, 0.000, 0.000, 0.000, 17:44:35.837
39, -462.70, -80.39, 224.14, -3332.43, 0.000, 0.000, 0.000, 17:44:35.851
40, -512.40, -109.89, 248.16, -3255.95, 0.000, 0.000, 0.000, 17:44:35.851
41, -489.86, -85.04, 278.44, -3272.67, 0.000, 0.000, 0.000, 17:44:35.852
42, -433.14, -56.85, 241.08, -3362.33, 0.000, 0.000, 0.000, 17:44:35.852
43, -456.04, -80.41, 220.91, -3332.01, 0.000, 0.000, 0.000, 17:44:35.866
44, -502.69, -100.05, 254.35, -3277.76, 0.000, 0.000, 0.000, 17:44:35.867
45, -485.60, -83.71, 265.42, -3248.12, 0.000, 0.000, 0.000, 17:44:35.881
46, -439.52, -56.74, 248.87, -3366.28, 0.000, 0.000, 0.000, 17:44:35.881
47, -455.31, -72.22, 250.92, -3356.81, 0.000, 0.000, 0.000, 17:44:35.882
48, -508.32, -102.54, 247.58, -3237.27, 0.000, 0.000, 0.000, 17:44:35.882
49, -501.27, -94.74, 252.41, -3315.62, 0.000, 0.000, 0.000, 17:44:35.911
50, -453.24, -62.44, 253.67, -3451.74, 0.000, 0.000, 0.000, 17:44:35.911
51, -453.48, -70.47, 226.66, -3340.46, 0.000, 0.000, 0.000, 17:44:35.912
52, -511.52, -96.25, 246.78, -3255.00, 0.000, 0.000, 0.000, 17:44:35.912
53, -484.54, -72.48, 281.85, -3258.06, 0.000, 0.000, 0.000, 17:44:35.913
54, -442.30, -57.79, 261.77, -3388.70, 0.000, 0.000, 0.000, 17:44:35.913
55, -455.47, -73.31, 222.27, -3395.85, 0.000, 0.000, 0.000, 17:44:35.926
56, -520.69, -103.57, 252.76, -3358.98, 0.000, 0.000, 0.000, 17:44:35.926
57, -489.87, -85.97, 263.59, -3294.16, 0.000, 0.000, 0.000, 17:44:35.941
58, -451.37, -66.54, 229.31, -3440.55, 0.000, 0.000, 0.000, 17:44:35.941
59, -467.02, -84.31, 220.79, -3397.87, 0.000, 0.000, 0.000, 17:44:35.942
60, -506.62, -102.48, 246.47, -3201.58, 0.000, 0.000, 0.000, 17:44:35.942
61, -484.44, -83.99, 273.08, -3274.42, 0.000, 0.000, 0.000, 17:44:35.956
62, -443.16, -62.76, 263.17, -3435.08, 0.000, 0.000, 0.000, 17:44:35.957
63, -451.25, -74.25, 233.49, -3339.78, 0.000, 0.000, 0.000, 17:44:35.971
64, -497.43, -96.70, 246.53, -3210.07, 0.000, 0.000, 0.000, 17:44:35.971
65, -480.34, -79.45, 275.66, -3275.50, 0.000, 0.000, 0.000, 17:44:35.972
66, -431.82, -56.24, 242.91, -3374.48, 0.000, 0.000, 0.000, 17:44:35.972
67, -451.61, -68.90, 235.22, -3378.19, 0.000, 0.000, 0.000, 17:44:35.986
68, -515.16, -98.39, 262.81, -3337.64, 0.000, 0.000, 0.000, 17:44:35.986
69, -487.42, -77.17, 264.20, -3283.46, 0.000, 0.000, 0.000, 17:44:36.001
70, -432.34, -49.41, 250.38, -3383.24, 0.000, 0.000, 0.000, 17:44:36.001
71, -455.24, -70.87, 229.47, -3373.05, 0.000, 0.000, 0.000, 17:44:36.002
72, -499.59, -93.10, 252.10, -3207.10, 0.000, 0.000, 0.000, 17:44:36.002
73, -485.13, -77.54, 277.00, -3300.70, 0.000, 0.000, 0.000, 17:44:36.017
74, -448.20, -60.29, 249.36, -3454.56, 0.000, 0.000, 0.000, 17:44:36.017
75, -453.74, -73.35, 235.31, -3323.25, 0.000, 0.000, 0.000, 17:44:36.031
76, -501.62, -100.31, 250.81, -3241.64, 0.000, 0.000, 0.000, 17:44:36.031
77, -495.58, -87.61, 254.43, -3296.57, 0.000, 0.000, 0.000, 17:44:36.032
78, -433.07, -54.72, 242.26, -3396.16, 0.000, 0.000, 0.000, 17:44:36.032
79, -451.85, -71.49, 226.66, -3394.82, 0.000, 0.000, 0.000, 17:44:36.046
80, -515.23, -99.66, 251.33, -3314.80, 0.000, 0.000, 0.000, 17:44:36.046
81, -478.87, -73.16, 267.54, -3261.10, 0.000, 0.000, 0.000, 17:44:36.061
82, -427.68, -53.64, 261.84, -3415.00, 0.000, 0.000, 0.000, 17:44:36.061
83, -462.25, -83.28, 226.01, -3416.66, 0.000, 0.000, 0.000, 17:44:36.062
84, -504.28, -100.95, 249.27, -3259.66, 0.000, 0.000, 0.000, 17:44:36.062
85, -479.00, -80.52, 271.06, -3308.83, 0.000, 0.000, 0.000, 17:44:36.076
86, -420.50, -40.35, 265.20, -3469.23, 0.000, 0.000, 0.000, 17:44:36.076
87, -428.26, -53.50, 241.49, -3317.89, 0.000, 0.000, 0.000, 17:44:36.091
88, -485.22, -82.84, 270.47, -3223.99, 0.000, 0.000, 0.000, 17:44:36.091
89, -492.14, -86.83, 275.21, -3339.87, 0.000, 0.000, 0.000, 17:44:36.092
90, -439.99, -55.18, 248.21, -3376.36, 0.000, 0.000, 0.000, 17:44:36.092
91, -444.61, -64.24, 242.09, -3363.80, 0.000, 0.000, 0.000, 17:44:36.106
92, -509.31, -94.89, 263.31, -3305.72, 0.000, 0.000, 0.000, 17:44:36.106
93, -481.54, -71.98, 283.77, -3252.68, 0.000, 0.000, 0.000, 17:44:36.121
94, -426.99, -48.11, 254.83, -3371.09, 0.000, 0.000, 0.000, 17:44:36.121
95, -449.58, -61.44, 250.52, -3355.02, 0.000, 0.000, 0.000, 17:44:36.122
96, -501.01, -92.09, 263.95, -3218.79, 0.000, 0.000, 0.000, 17:44:36.122
97, -485.10, -74.76, 275.00, -3295.84, 0.000, 0.000, 0.000, 17:44:36.137
98, -444.15, -56.60, 268.20, -3445.51, 0.000, 0.000, 0.000, 17:44:36.137
99, -445.01, -63.31, 236.50, -3330.96, 0.000, 0.000, 0.000, 17:44:36.151
100, -500.30, -95.46, 244.15, -3267.46, 0.000, 0.000, 0.000, 17:44:36.151
101, -485.11, -77.90, 271.15, -3295.45, 0.000, 0.000, 0.000, 17:44:36.152
102, -437.18, -49.83, 259.20, -3414.22, 0.000, 0.000, 0.000, 17:44:36.152
103, -458.97, -73.07, 228.67, -3385.29, 0.000, 0.000, 0.000, 17:44:36.166
104, -500.31, -88.70, 260.10, -3296.40, 0.000, 0.000, 0.000, 17:44:36.166
105, -485.57, -79.06, 272.73, -3257.24, 0.000, 0.000, 0.000, 17:44:36.181
106, -437.79, -59.43, 245.73, -3345.82, 0.000, 0.000, 0.000, 17:44:36.181
107, -445.69, -68.05, 238.46, -3347.25, 0.000, 0.000, 0.000, 17:44:36.182
108, -491.34, -87.89, 256.80, -3210.97, 0.000, 0.000, 0.000, 17:44:36.182
109, -477.51, -76.48, 273.63, -3250.44, 0.000, 0.000, 0.000, 17:44:36.196
110, -448.28, -61.77, 232.67, -3436.37, 0.000, 0.000, 0.000, 17:44:36.197
111, -446.35, -69.96, 233.08, -3337.78, 0.000, 0.000, 0.000, 17:44:36.211
112, -502.18, -94.96, 243.84, -3238.10, 0.000, 0.000, 0.000, 17:44:36.211
113, -498.37, -89.87, 250.42, -3304.01, 0.000, 0.000, 0.000, 17:44:36.212
114, -435.58, -58.38, 247.49, -3385.17, 0.000, 0.000, 0.000, 17:44:36.212
115, -453.76, -71.99, 229.24, -3357.77, 0.000, 0.000, 0.000, 17:44:36.226
116, -511.82, -102.84, 241.35, -3308.29, 0.000, 0.000, 0.000, 17:44:36.226
117, -494.64, -85.90, 270.74, -3273.58, 0.000, 0.000, 0.000, 17:44:36.241
118, -440.35, -62.87, 249.00, -3414.50, 0.000, 0.000, 0.000, 17:44:36.241
119, -464.01, -83.59, 229.04, -3401.03, 0.000, 0.000, 0.000, 17:44:36.242
120, -503.53, -105.39, 261.11, -3258.38, 0.000, 0.000, 0.000, 17:44:36.242
121, -493.71, -87.58, 271.61, -3284.17, 0.000, 0.000, 0.000, 17:44:36.256
122, -445.38, -63.15, 252.81, -3472.59, 0.000, 0.000, 0.000, 17:44:36.256
123, -452.15, -68.73, 225.76, -3366.02, 0.000, 0.000, 0.000, 17:44:36.271
124, -510.01, -97.31, 255.83, -3266.51, 0.000, 0.000, 0.000, 17:44:36.271
125, -493.39, -84.29, 256.62, -3296.72, 0.000, 0.000, 0.000, 17:44:36.272
126, -439.33, -61.82, 244.79, -3408.38, 0.000, 0.000, 0.000, 17:44:36.272
127, -457.39, -75.21, 231.08, -3389.49, 0.000, 0.000, 0.000, 17:44:36.286
128, -511.24, -100.37, 257.88, -3330.85, 0.000, 0.000, 0.000, 17:44:36.287
129, -492.97, -79.05, 271.51, -3275.20, 0.000, 0.000, 0.000, 17:44:36.301
130, -441.21, -60.44, 248.00, -3444.22, 0.000, 0.000, 0.000, 17:44:36.301
131, -457.49, -68.71, 236.07, -3390.34, 0.000, 0.000, 0.000, 17:44:36.302
132, -509.61, -96.58, 250.87, -3248.91, 0.000, 0.000, 0.000, 17:44:36.302
133, -484.49, -75.18, 272.12, -3276.97, 0.000, 0.000, 0.000, 17:44:36.316
134, -449.66, -64.95, 255.08, -3435.60, 0.000, 0.000, 0.000, 17:44:36.316
135, -452.67, -72.72, 230.58, -3297.58, 0.000, 0.000, 0.000, 17:44:36.331
136, -503.77, -100.00, 249.78, -3236.61, 0.000, 0.000, 0.000, 17:44:36.331
137, -499.86, -88.04, 276.06, -3282.13, 0.000, 0.000, 0.000, 17:44:36.332
138, -443.48, -55.40, 261.72, -3383.91, 0.000, 0.000, 0.000, 17:44:36.332
139, -458.74, -66.10, 236.11, -3361.85, 0.000, 0.000, 0.000, 17:44:36.346
140, -513.98, -98.99, 248.97, -3307.54, 0.000, 0.000, 0.000, 17:44:36.346
141, -491.87, -86.51, 257.67, -3263.16, 0.000, 0.000, 0.000, 17:44:36.361
142, -436.30, -53.82, 243.14, -3399.94, 0.000, 0.000, 0.000, 17:44:36.361
143, -445.28, -71.71, 236.68, -3396.39, 0.000, 0.000, 0.000, 17:44:36.362
144, -495.30, -93.48, 249.13, -3228.35, 0.000, 0.000, 0.000, 17:44:36.362
145, -487.63, -83.31, 263.45, -3262.62, 0.000, 0.000, 0.000, 17:44:36.377
146, -446.32, -53.70, 249.18, -3459.62, 0.000, 0.000, 0.000, 17:44:36.377
147, -440.23, -54.79, 244.85, -3343.49, 0.000, 0.000, 0.000, 17:44:36.394
148, -497.57, -89.53, 234.92, -3253.71, 0.000, 0.000, 0.000, 17:44:36.394
149, -487.79, -80.29, 265.02, -3288.69, 0.000, 0.000, 0.000, 17:44:36.395
150, -429.68, -51.35, 248.94, -3385.79, 0.000, 0.000, 0.000, 17:44:36.395
151, -448.14, -68.44, 239.19, -3398.07, 0.000, 0.000, 0.000, 17:44:36.406
152, -511.04, -100.36, 245.01, -3324.05, 0.000, 0.000, 0.000, 17:44:36.406
153, -502.97, -95.80, 247.48, -3307.55, 0.000, 0.000, 0.000, 17:44:36.421
154, -441.10, -48.80, 257.00, -3412.15, 0.000, 0.000, 0.000, 17:44:36.421
155, -459.18, -71.57, 230.72, -3394.85, 0.000, 0.000, 0.000, 17:44:36.422
156, -501.25, -92.42, 251.23, -3261.18, 0.000, 0.000, 0.000, 17:44:36.422
157, -489.11, -79.47, 276.19, -3302.79, 0.000, 0.000, 0.000, 17:44:36.437
158, -445.99, -59.42, 263.59, -3457.85, 0.000, 0.000, 0.000, 17:44:36.437
159, -448.55, -65.90, 232.60, -3352.58, 0.000, 0.000, 0.000, 17:44:36.451
160, -500.36, -89.07, 267.24, -3261.17, 0.000, 0.000, 0.000, 17:44:36.451
161, -497.78, -88.69, 270.62, -3310.22, 0.000, 0.000, 0.000, 17:44:36.452
162, -438.90, -50.25, 240.13, -3387.26, 0.000, 0.000, 0.000, 17:44:36.452
163, -455.61, -70.20, 229.52, -3407.57, 0.000, 0.000, 0.000, 17:44:36.466
164, -517.04, -102.14, 263.18, -3320.66, 0.000, 0.000, 0.000, 17:44:36.467
165, -489.23, -78.08, 284.07, -3256.20, 0.000, 0.000, 0.000, 17:44:36.481
166, -435.78, -48.25, 257.51, -3376.32, 0.000, 0.000, 0.000, 17:44:36.481
167, -451.82, -61.54, 229.55, -3371.44, 0.000, 0.000, 0.000, 17:44:36.482
168, -503.41, -92.20, 252.10, -3219.81, 0.000, 0.000, 0.000, 17:44:36.482
169, -489.57, -85.81, 272.65, -3289.85, 0.000, 0.000, 0.000, 17:44:36.496
170, -444.38, -54.86, 257.79, -3466.02, 0.000, 0.000, 0.000, 17:44:36.497
171, -455.01, -70.34, 230.45, -3361.00, 0.000, 0.000, 0.000, 17:44:36.511
172, -493.90, -85.41, 255.89, -3240.46, 0.000, 0.000, 0.000, 17:44:36.511
173, -490.85, -86.32, 267.30, -3266.92, 0.000, 0.000, 0.000, 17:44:36.512
174, -439.44, -57.49, 248.99, -3340.98, 0.000, 0.000, 0.000, 17:44:36.512
175, -456.67, -74.79, 228.05, -3375.45, 0.000, 0.000, 0.000, 17:44:36.526
176, -515.78, -103.62, 242.33, -3334.30, 0.000, 0.000, 0.000, 17:44:36.527
177, -494.61, -82.92, 272.67, -3273.82, 0.000, 0.000, 0.000, 17:44:36.556
178, -432.59, -53.90, 259.18, -3391.56, 0.000, 0.000, 0.000, 17:44:36.556
179, -453.78, -65.29, 223.32, -3387.62, 0.000, 0.000, 0.000, 17:44:36.558
180, -503.28, -99.51, 237.93, -3268.78, 0.000, 0.000, 0.000, 17:44:36.558
181, -500.60, -86.47, 252.70, -3310.43, 0.000, 0.000, 0.000, 17:44:36.558
182, -441.21, -56.60, 251.27, -3378.58, 0.000, 0.000, 0.000, 17:44:36.558
183, -451.52, -64.52, 227.51, -3373.92, 0.000, 0.000, 0.000, 17:44:36.559
184, -507.05, -95.03, 254.25, -3271.83, 0.000, 0.000, 0.000, 17:44:36.559
185, -517.07, -89.54, 288.05, -3455.63, 0.000, 0.000, 0.000, 17:44:36.571
186, -450.99, -63.92, 240.10, -3359.62, 0.000, 0.000, 0.000, 17:44:36.572
187, -467.09, -76.44, 219.34, -3367.12, 0.000, 0.000, 0.000, 17:44:36.586
188, -507.85, -95.69, 254.80, -3248.29, 0.000, 0.000, 0.000, 17:44:36.587
189, -495.33, -87.32, 269.16, -3257.83, 0.000, 0.000, 0.000, 17:44:36.601
190, -444.30, -58.09, 255.84, -3420.23, 0.000, 0.000, 0.000, 17:44:36.601
191, -454.99, -67.49, 245.19, -3366.64, 0.000, 0.000, 0.000, 17:44:36.602
192, -504.93, -96.24, 242.92, -3245.96, 0.000, 0.000, 0.000, 17:44:36.602
193, -503.19, -91.21, 242.04, -3298.07, 0.000, 0.000, 0.000, 17:44:36.616
194, -449.41, -56.22, 245.63, -3444.84, 0.000, 0.000, 0.000, 17:44:36.616
195, -448.98, -66.05, 218.11, -3320.33, 0.000, 0.000, 0.000, 17:44:36.631
196, -504.30, -92.53, 238.99, -3248.77, 0.000, 0.000, 0.000, 17:44:36.631
197, -495.52, -90.96, 264.30, -3264.28, 0.000, 0.000, 0.000, 17:44:36.646
198, -433.37, -54.14, 254.47, -3350.89, 0.000, 0.000, 0.000, 17:44:36.646
199, -447.66, -66.22, 224.41, -3358.33, 0.000, 0.000, 0.000, 17:44:36.647
200, -512.62, -108.67, 243.27, -3300.99, 0.000, 0.000, 0.000, 17:44:36.647
0, -485.11, -78.51, 275.81, -3202.02, 0.000, 0.000, 0.000, 17:44:36.647
1, -437.87, -49.23, 251.85, -3390.57, 0.000, 0.000, 0.000, 17:44:36.661
2, -464.10, -76.16, 238.75, -3440.39, 0.000, 0.000, 0.000, 17:44:36.661
3, -502.47, -92.11, 234.03, -3216.09, 0.000, 0.000, 0.000, 17:44:36.676
4, -494.19, -84.14, 259.76, -3256.26, 0.000, 0.000, 0.000, 17:44:36.676
5, -444.99, -64.13, 252.93, -3373.02, 0.000, 0.000, 0.000, 17:44:36.677
6, -454.25, -74.05, 217.74, -3319.68, 0.000, 0.000, 0.000, 17:44:36.677
7, -508.38, -100.79, 242.84, -3231.75, 0.000, 0.000, 0.000, 17:44:36.691
8, -499.50, -89.82, 271.09, -3320.54, 0.000, 0.000, 0.000, 17:44:36.691
9, -437.29, -52.13, 251.26, -3366.77, 0.000, 0.000, 0.000, 17:44:36.706
10, -445.62, -65.50, 219.63, -3349.99, 0.000, 0.000, 0.000, 17:44:36.706
11, -502.91, -93.51, 244.28, -3251.17, 0.000, 0.000, 0.000, 17:44:36.707
12, -493.03, -83.40, 252.29, -3254.12, 0.000, 0.000, 0.000, 17:44:36.707
13, -438.48, -55.63, 244.39, -3374.74, 0.000, 0.000, 0.000, 17:44:36.722
14, -457.45, -77.27, 232.26, -3410.18, 0.000, 0.000, 0.000, 17:44:36.722
15, -506.66, -105.47, 227.14, -3198.86, 0.000, 0.000, 0.000, 17:44:36.736
16, -499.18, -90.69, 262.45, -3266.72, 0.000, 0.000, 0.000, 17:44:36.736
17, -449.50, -68.62, 241.41, -3381.14, 0.000, 0.000, 0.000, 17:44:36.737
18, -452.20, -74.79, 220.08, -3329.54, 0.000, 0.000, 0.000, 17:44:36.737
19, -515.80, -111.27, 230.47, -3250.14, 0.000, 0.000, 0.000, 17:44:36.752
20, -514.14, -99.77, 265.39, -3323.78, 0.000, 0.000, 0.000, 17:44:36.752
21, -450.42, -63.28, 242.21, -3367.87, 0.000, 0.000, 0.000, 17:44:36.766
