%OpenBCI Raw EEG Data
%25s
%Sample Rate = 200.0 Hz
%First Column = SampleIndex
%Last Column = Timestamp 
%Other Columns = EEG data in microvolts followed by Accel Data (in G) interleaved with Aux Data
0, -460.58, -135.54, 215.07, -3051.84, 0.000, 0.000, 0.000, 17:35:05.368
1, -428.62, -116.01, 208.93, -3216.79, 0.000, 0.000, 0.000, 17:35:05.384
2, -412.07, -115.29, 189.65, -3317.54, 0.000, 0.000, 0.000, 17:35:05.385
3, -447.21, -129.87, 196.83, -3148.17, 0.000, 0.000, 0.000, 17:35:05.398
4, -472.32, -139.34, 226.50, -3107.28, 0.000, 0.000, 0.000, 17:35:05.399
5, -429.72, -125.01, 221.33, -3211.84, 0.000, 0.000, 0.000, 17:35:05.399
6, -407.10, -111.81, 186.14, -3199.00, 0.000, 0.000, 0.000, 17:35:05.399
7, -446.57, -133.09, 189.97, -3137.91, 0.000, 0.000, 0.000, 17:35:05.413
8, -476.68, -143.52, 216.60, -3130.31, 0.000, 0.000, 0.000, 17:35:05.413
9, -436.60, -124.56, 205.38, -3176.45, 0.000, 0.000, 0.000, 17:35:05.428
10, -412.05, -120.09, 191.74, -3230.64, 0.000, 0.000, 0.000, 17:35:05.428
11, -447.86, -134.96, 184.25, -3147.60, 0.000, 0.000, 0.000, 17:35:05.429
12, -473.88, -145.16, 213.15, -3041.98, 0.000, 0.000, 0.000, 17:35:05.429
13, -438.07, -133.86, 212.64, -3160.18, 0.000, 0.000, 0.000, 17:35:05.443
14, -431.60, -132.63, 171.46, -3266.91, 0.000, 0.000, 0.000, 17:35:05.443
15, -452.88, -140.98, 179.43, -3128.77, 0.000, 0.000, 0.000, 17:35:05.458
16, -472.82, -143.70, 212.80, -3090.84, 0.000, 0.000, 0.000, 17:35:05.459
17, -440.60, -132.62, 209.91, -3223.64, 0.000, 0.000, 0.000, 17:35:05.459
18, -406.67, -115.39, 185.10, -3213.24, 0.000, 0.000, 0.000, 17:35:05.459
19, -448.56, -141.37, 179.83, -3111.61, 0.000, 0.000, 0.000, 17:35:05.473
20, -478.59, -151.90, 214.17, -3101.86, 0.000, 0.000, 0.000, 17:35:05.473
21, -429.60, -125.76, 205.11, -3145.18, 0.000, 0.000, 0.000, 17:35:05.488
22, -405.77, -116.04, 181.01, -3224.49, 0.000, 0.000, 0.000, 17:35:05.488
23, -445.64, -135.80, 195.20, -3108.94, 0.000, 0.000, 0.000, 17:35:05.488
24, -465.40, -143.24, 209.64, -3038.33, 0.000, 0.000, 0.000, 17:35:05.488
25, -436.69, -131.18, 195.60, -3184.29, 0.000, 0.000, 0.000, 17:35:05.503
26, -405.25, -108.61, 184.03, -3300.04, 0.000, 0.000, 0.000, 17:35:05.503
27, -448.50, -136.24, 181.79, -3120.28, 0.000, 0.000, 0.000, 17:35:05.518
28, -478.25, -148.57, 202.40, -3084.48, 0.000, 0.000, 0.000, 17:35:05.518
29, -434.47, -128.98, 209.23, -3201.85, 0.000, 0.000, 0.000, 17:35:05.518
30, -402.60, -115.53, 188.65, -3209.61, 0.000, 0.000, 0.000, 17:35:05.518
31, -444.44, -142.48, 194.82, -3107.34, 0.000, 0.000, 0.000, 17:35:05.533
32, -471.72, -151.31, 219.00, -3111.95, 0.000, 0.000, 0.000, 17:35:05.533
33, -428.69, -122.92, 214.76, -3167.18, 0.000, 0.000, 0.000, 17:35:05.548
34, -407.02, -119.68, 178.43, -3207.91, 0.000, 0.000, 0.000, 17:35:05.549
35, -447.90, -139.46, 180.01, -3143.99, 0.000, 0.000, 0.000, 17:35:05.549
36, -476.33, -149.41, 204.63, -3072.83, 0.000, 0.000, 0.000, 17:35:05.549
37, -432.55, -124.80, 210.99, -3165.79, 0.000, 0.000, 0.000, 17:35:05.563
38, -406.81, -110.25, 187.36, -3247.00, 0.000, 0.000, 0.000, 17:35:05.563
39, -439.16, -132.39, 186.60, -3088.85, 0.000, 0.000, 0.000, 17:35:05.577
40, -461.25, -139.19, 204.92, -3018.00, 0.000, 0.000, 0.000, 17:35:05.578
41, -436.41, -124.98, 192.65, -3176.50, 0.000, 0.000, 0.000, 17:35:05.578
42, -405.44, -117.83, 164.06, -3180.79, 0.000, 0.000, 0.000, 17:35:05.578
43, -441.61, -135.18, 167.76, -3104.56, 0.000, 0.000, 0.000, 17:35:05.593
44, -462.78, -138.65, 210.69, -3109.01, 0.000, 0.000, 0.000, 17:35:05.593
45, -428.33, -118.24, 204.00, -3153.22, 0.000, 0.000, 0.000, 17:35:05.608
46, -403.69, -106.76, 183.98, -3212.46, 0.000, 0.000, 0.000, 17:35:05.608
47, -448.80, -138.77, 183.11, -3128.63, 0.000, 0.000, 0.000, 17:35:05.609
48, -473.30, -150.59, 197.05, -3042.73, 0.000, 0.000, 0.000, 17:35:05.609
49, -439.27, -123.82, 200.27, -3169.60, 0.000, 0.000, 0.000, 17:35:05.638
50, -420.29, -116.92, 185.65, -3252.33, 0.000, 0.000, 0.000, 17:35:05.638
51, -444.42, -138.80, 175.52, -3098.65, 0.000, 0.000, 0.000, 17:35:05.638
52, -472.01, -145.47, 192.77, -3046.83, 0.000, 0.000, 0.000, 17:35:05.638
53, -436.16, -125.58, 197.26, -3175.17, 0.000, 0.000, 0.000, 17:35:05.639
54, -401.26, -107.40, 184.25, -3197.28, 0.000, 0.000, 0.000, 17:35:05.639
55, -452.51, -143.88, 185.23, -3143.57, 0.000, 0.000, 0.000, 17:35:05.653
56, -495.74, -159.37, 217.21, -3180.56, 0.000, 0.000, 0.000, 17:35:05.653
57, -431.82, -121.58, 204.11, -3138.62, 0.000, 0.000, 0.000, 17:35:05.668
58, -400.39, -105.81, 184.07, -3204.21, 0.000, 0.000, 0.000, 17:35:05.668
59, -447.29, -134.14, 186.39, -3121.07, 0.000, 0.000, 0.000, 17:35:05.668
60, -472.61, -147.33, 194.87, -3027.96, 0.000, 0.000, 0.000, 17:35:05.669
61, -441.74, -133.25, 200.63, -3174.44, 0.000, 0.000, 0.000, 17:35:05.683
62, -420.04, -126.01, 184.44, -3296.00, 0.000, 0.000, 0.000, 17:35:05.683
63, -443.97, -144.09, 185.04, -3117.80, 0.000, 0.000, 0.000, 17:35:05.698
64, -469.52, -145.90, 202.80, -3069.06, 0.000, 0.000, 0.000, 17:35:05.698
65, -439.18, -128.10, 202.67, -3181.99, 0.000, 0.000, 0.000, 17:35:05.698
66, -408.66, -115.92, 186.16, -3209.09, 0.000, 0.000, 0.000, 17:35:05.699
67, -442.52, -138.97, 198.79, -3121.84, 0.000, 0.000, 0.000, 17:35:05.713
68, -483.50, -157.04, 212.57, -3131.57, 0.000, 0.000, 0.000, 17:35:05.713
69, -440.55, -131.64, 198.26, -3148.82, 0.000, 0.000, 0.000, 17:35:05.727
70, -405.11, -115.66, 179.64, -3232.18, 0.000, 0.000, 0.000, 17:35:05.728
71, -450.33, -135.24, 185.27, -3177.03, 0.000, 0.000, 0.000, 17:35:05.728
72, -472.36, -142.39, 217.57, -3063.24, 0.000, 0.000, 0.000, 17:35:05.728
73, -439.35, -130.11, 205.40, -3124.30, 0.000, 0.000, 0.000, 17:35:05.743
74, -409.25, -116.92, 177.48, -3249.63, 0.000, 0.000, 0.000, 17:35:05.743
75, -436.52, -134.94, 175.93, -3121.05, 0.000, 0.000, 0.000, 17:35:05.757
76, -475.20, -155.95, 202.05, -3073.08, 0.000, 0.000, 0.000, 17:35:05.758
77, -433.33, -124.35, 218.38, -3153.30, 0.000, 0.000, 0.000, 17:35:05.758
78, -396.42, -107.28, 185.41, -3179.53, 0.000, 0.000, 0.000, 17:35:05.759
79, -442.57, -135.67, 180.77, -3131.44, 0.000, 0.000, 0.000, 17:35:05.773
80, -485.58, -153.36, 211.87, -3127.58, 0.000, 0.000, 0.000, 17:35:05.773
81, -437.52, -127.34, 206.92, -3139.55, 0.000, 0.000, 0.000, 17:35:05.788
82, -406.87, -117.92, 175.94, -3221.62, 0.000, 0.000, 0.000, 17:35:05.788
83, -450.99, -142.38, 182.02, -3156.29, 0.000, 0.000, 0.000, 17:35:05.788
84, -472.93, -145.41, 209.18, -3021.79, 0.000, 0.000, 0.000, 17:35:05.788
85, -431.88, -120.42, 207.28, -3155.57, 0.000, 0.000, 0.000, 17:35:05.803
86, -419.67, -119.77, 177.45, -3271.89, 0.000, 0.000, 0.000, 17:35:05.803
87, -447.13, -141.25, 179.16, -3111.72, 0.000, 0.000, 0.000, 17:35:05.817
88, -472.74, -149.90, 214.67, -3052.87, 0.000, 0.000, 0.000, 17:35:05.818
89, -443.37, -127.69, 204.63, -3196.36, 0.000, 0.000, 0.000, 17:35:05.818
90, -408.60, -113.13, 184.10, -3197.22, 0.000, 0.000, 0.000, 17:35:05.818
91, -437.74, -131.96, 188.56, -3144.23, 0.000, 0.000, 0.000, 17:35:05.833
92, -481.81, -151.28, 211.17, -3109.97, 0.000, 0.000, 0.000, 17:35:05.833
93, -437.17, -133.32, 212.38, -3154.46, 0.000, 0.000, 0.000, 17:35:05.848
94, -411.58, -125.77, 173.70, -3252.22, 0.000, 0.000, 0.000, 17:35:05.848
95, -451.44, -144.90, 172.90, -3156.65, 0.000, 0.000, 0.000, 17:35:05.848
96, -466.68, -146.23, 201.59, -3038.66, 0.000, 0.000, 0.000, 17:35:05.849
97, -431.96, -130.15, 202.87, -3126.58, 0.000, 0.000, 0.000, 17:35:05.863
98, -414.74, -118.84, 182.28, -3270.89, 0.000, 0.000, 0.000, 17:35:05.863
99, -448.14, -142.48, 165.91, -3120.42, 0.000, 0.000, 0.000, 17:35:05.878
100, -464.53, -145.57, 202.64, -3065.88, 0.000, 0.000, 0.000, 17:35:05.878
101, -444.40, -132.31, 209.14, -3179.06, 0.000, 0.000, 0.000, 17:35:05.878
102, -411.13, -118.32, 173.55, -3204.63, 0.000, 0.000, 0.000, 17:35:05.878
103, -449.58, -140.80, 181.53, -3127.90, 0.000, 0.000, 0.000, 17:35:05.893
104, -478.85, -151.30, 213.75, -3103.62, 0.000, 0.000, 0.000, 17:35:05.893
105, -443.06, -134.37, 201.35, -3160.96, 0.000, 0.000, 0.000, 17:35:05.907
106, -420.78, -125.00, 190.42, -3232.23, 0.000, 0.000, 0.000, 17:35:05.908
107, -454.91, -143.08, 183.28, -3133.54, 0.000, 0.000, 0.000, 17:35:05.908
108, -486.45, -153.22, 198.57, -3054.48, 0.000, 0.000, 0.000, 17:35:05.908
109, -453.74, -138.62, 197.32, -3204.41, 0.000, 0.000, 0.000, 17:35:05.923
110, -415.32, -115.40, 199.20, -3255.35, 0.000, 0.000, 0.000, 17:35:05.923
111, -453.11, -150.90, 168.48, -3106.37, 0.000, 0.000, 0.000, 17:35:05.953
112, -475.00, -150.83, 202.08, -3058.46, 0.000, 0.000, 0.000, 17:35:05.953
113, -445.56, -134.62, 202.77, -3184.20, 0.000, 0.000, 0.000, 17:35:05.953
114, -405.04, -115.52, 179.55, -3175.33, 0.000, 0.000, 0.000, 17:35:05.953
115, -446.54, -138.92, 183.98, -3119.18, 0.000, 0.000, 0.000, 17:35:05.954
116, -480.38, -158.65, 193.96, -3094.91, 0.000, 0.000, 0.000, 17:35:05.954
117, -446.49, -133.91, 202.89, -3178.37, 0.000, 0.000, 0.000, 17:35:05.955
118, -417.97, -128.66, 174.07, -3230.09, 0.000, 0.000, 0.000, 17:35:05.955
119, -469.86, -150.89, 193.41, -3282.50, 0.000, 0.000, 0.000, 17:35:05.968
120, -475.81, -152.16, 209.37, -3052.73, 0.000, 0.000, 0.000, 17:35:05.968
121, -437.65, -133.49, 214.19, -3159.74, 0.000, 0.000, 0.000, 17:35:05.983
122, -415.11, -124.43, 183.18, -3273.79, 0.000, 0.000, 0.000, 17:35:05.983
123, -450.06, -141.61, 184.97, -3114.19, 0.000, 0.000, 0.000, 17:35:05.997
124, -473.75, -152.41, 202.42, -3053.25, 0.000, 0.000, 0.000, 17:35:05.998
125, -445.72, -139.20, 199.02, -3196.71, 0.000, 0.000, 0.000, 17:35:05.998
126, -401.80, -116.44, 179.19, -3235.97, 0.000, 0.000, 0.000, 17:35:05.998
127, -449.03, -146.64, 170.70, -3144.27, 0.000, 0.000, 0.000, 17:35:06.013
128, -474.15, -149.82, 202.40, -3112.71, 0.000, 0.000, 0.000, 17:35:06.013
129, -438.31, -128.80, 200.10, -3176.66, 0.000, 0.000, 0.000, 17:35:06.028
130, -404.49, -115.26, 182.38, -3247.57, 0.000, 0.000, 0.000, 17:35:06.028
131, -441.94, -139.47, 188.92, -3169.50, 0.000, 0.000, 0.000, 17:35:06.029
132, -476.12, -149.19, 202.52, -3069.62, 0.000, 0.000, 0.000, 17:35:06.029
133, -439.29, -131.91, 204.96, -3180.64, 0.000, 0.000, 0.000, 17:35:06.043
134, -414.45, -121.31, 194.45, -3289.11, 0.000, 0.000, 0.000, 17:35:06.043
135, -446.75, -137.15, 181.23, -3139.51, 0.000, 0.000, 0.000, 17:35:06.058
136, -472.94, -149.88, 210.03, -3074.51, 0.000, 0.000, 0.000, 17:35:06.058
137, -453.17, -138.18, 213.85, -3187.88, 0.000, 0.000, 0.000, 17:35:06.058
138, -398.91, -106.74, 191.46, -3202.62, 0.000, 0.000, 0.000, 17:35:06.058
139, -444.92, -142.88, 183.95, -3109.04, 0.000, 0.000, 0.000, 17:35:06.073
140, -487.19, -154.93, 216.20, -3110.45, 0.000, 0.000, 0.000, 17:35:06.073
141, -445.23, -134.16, 205.18, -3131.08, 0.000, 0.000, 0.000, 17:35:06.087
142, -400.96, -114.23, 187.63, -3208.79, 0.000, 0.000, 0.000, 17:35:06.088
143, -443.29, -137.18, 179.08, -3180.67, 0.000, 0.000, 0.000, 17:35:06.088
144, -471.62, -150.76, 205.96, -3064.97, 0.000, 0.000, 0.000, 17:35:06.088
145, -442.50, -129.34, 210.19, -3159.33, 0.000, 0.000, 0.000, 17:35:06.103
146, -415.57, -125.78, 178.95, -3254.00, 0.000, 0.000, 0.000, 17:35:06.103
147, -447.53, -139.27, 169.57, -3126.01, 0.000, 0.000, 0.000, 17:35:06.118
148, -480.51, -156.13, 199.90, -3050.57, 0.000, 0.000, 0.000, 17:35:06.118
149, -449.48, -136.91, 205.68, -3167.21, 0.000, 0.000, 0.000, 17:35:06.118
150, -403.22, -113.33, 184.30, -3193.70, 0.000, 0.000, 0.000, 17:35:06.118
151, -444.06, -141.81, 190.16, -3129.74, 0.000, 0.000, 0.000, 17:35:06.133
152, -486.31, -159.44, 208.63, -3116.02, 0.000, 0.000, 0.000, 17:35:06.133
153, -444.53, -133.30, 200.85, -3136.36, 0.000, 0.000, 0.000, 17:35:06.148
154, -411.00, -114.35, 186.90, -3208.55, 0.000, 0.000, 0.000, 17:35:06.148
155, -452.69, -131.23, 188.65, -3152.81, 0.000, 0.000, 0.000, 17:35:06.148
156, -483.24, -152.02, 204.68, -3045.99, 0.000, 0.000, 0.000, 17:35:06.148
157, -438.32, -129.01, 211.19, -3168.34, 0.000, 0.000, 0.000, 17:35:06.163
158, -417.05, -122.98, 190.86, -3270.56, 0.000, 0.000, 0.000, 17:35:06.163
159, -435.78, -136.52, 188.54, -3100.00, 0.000, 0.000, 0.000, 17:35:06.178
160, -472.71, -149.40, 207.55, -3069.21, 0.000, 0.000, 0.000, 17:35:06.178
161, -442.83, -125.64, 218.86, -3178.37, 0.000, 0.000, 0.000, 17:35:06.178
162, -413.60, -120.95, 183.26, -3226.05, 0.000, 0.000, 0.000, 17:35:06.179
163, -439.06, -140.07, 184.37, -3152.36, 0.000, 0.000, 0.000, 17:35:06.193
164, -480.77, -152.85, 207.78, -3116.30, 0.000, 0.000, 0.000, 17:35:06.193
165, -436.24, -129.32, 207.57, -3136.34, 0.000, 0.000, 0.000, 17:35:06.208
166, -403.36, -114.24, 189.37, -3226.12, 0.000, 0.000, 0.000, 17:35:06.209
167, -436.08, -133.49, 182.55, -3142.12, 0.000, 0.000, 0.000, 17:35:06.209
168, -468.31, -144.02, 203.96, -3019.56, 0.000, 0.000, 0.000, 17:35:06.209
169, -441.67, -130.14, 207.93, -3164.45, 0.000, 0.000, 0.000, 17:35:06.223
170, -416.11, -116.94, 187.60, -3272.84, 0.000, 0.000, 0.000, 17:35:06.223
171, -443.91, -131.79, 187.50, -3136.66, 0.000, 0.000, 0.000, 17:35:06.238
172, -475.07, -155.06, 204.84, -3067.25, 0.000, 0.000, 0.000, 17:35:06.238
173, -448.54, -136.18, 208.07, -3164.24, 0.000, 0.000, 0.000, 17:35:06.239
174, -407.64, -117.68, 179.95, -3160.05, 0.000, 0.000, 0.000, 17:35:06.239
175, -439.41, -135.63, 182.13, -3123.31, 0.000, 0.000, 0.000, 17:35:06.253
176, -480.98, -154.64, 210.70, -3094.42, 0.000, 0.000, 0.000, 17:35:06.253
177, -443.39, -135.02, 208.09, -3112.75, 0.000, 0.000, 0.000, 17:35:06.282
178, -411.84, -117.05, 184.88, -3213.00, 0.000, 0.000, 0.000, 17:35:06.283
179, -446.20, -146.29, 177.02, -3144.74, 0.000, 0.000, 0.000, 17:35:06.287
180, -472.70, -153.58, 202.47, -3042.63, 0.000, 0.000, 0.000, 17:35:06.287
181, -443.92, -135.30, 206.93, -3142.10, 0.000, 0.000, 0.000, 17:35:06.288
182, -405.83, -116.60, 188.31, -3195.95, 0.000, 0.000, 0.000, 17:35:06.288
183, -439.12, -138.46, 175.64, -3126.67, 0.000, 0.000, 0.000, 17:35:06.307
184, -477.35, -145.81, 207.98, -3077.01, 0.000, 0.000, 0.000, 17:35:06.308
185, -464.07, -137.34, 229.03, -3312.69, 0.000, 0.000, 0.000, 17:35:06.308
186, -402.13, -115.30, 181.10, -3215.55, 0.000, 0.000, 0.000, 17:35:06.308
187, -430.01, -124.30, 188.89, -3119.02, 0.000, 0.000, 0.000, 17:35:06.313
188, -469.07, -140.91, 208.66, -3093.45, 0.000, 0.000, 0.000, 17:35:06.313
189, -439.96, -124.54, 196.98, -3139.19, 0.000, 0.000, 0.000, 17:35:06.328
190, -394.83, -105.28, 189.29, -3208.54, 0.000, 0.000, 0.000, 17:35:06.328
191, -443.79, -132.12, 198.87, -3194.18, 0.000, 0.000, 0.000, 17:35:06.328
192, -475.88, -150.85, 196.61, -3063.82, 0.000, 0.000, 0.000, 17:35:06.328
193, -442.90, -130.98, 209.00, -3169.99, 0.000, 0.000, 0.000, 17:35:06.343
194, -415.63, -120.12, 193.16, -3285.24, 0.000, 0.000, 0.000, 17:35:06.344
195, -429.97, -129.83, 180.47, -3136.63, 0.000, 0.000, 0.000, 17:35:06.357
196, -469.00, -144.88, 200.51, -3059.19, 0.000, 0.000, 0.000, 17:35:06.358
197, -445.64, -123.66, 207.47, -3193.77, 0.000, 0.000, 0.000, 17:35:06.358
198, -404.61, -109.99, 183.75, -3234.94, 0.000, 0.000, 0.000, 17:35:06.358
199, -450.33, -141.72, 176.08, -3168.24, 0.000, 0.000, 0.000, 17:35:06.373
200, -480.51, -145.76, 215.67, -3122.90, 0.000, 0.000, 0.000, 17:35:06.373
0, -436.25, -123.32, 205.79, -3153.43, 0.000, 0.000, 0.000, 17:35:06.373
1, -413.63, -118.90, 178.75, -3240.42, 0.000, 0.000, 0.000, 17:35:06.388
2, -449.81, -139.16, 191.09, -3202.27, 0.000, 0.000, 0.000, 17:35:06.388
3, -480.35, -159.23, 186.90, -3070.92, 0.000, 0.000, 0.000, 17:35:06.403
4, -450.67, -141.82, 200.20, -3148.56, 0.000, 0.000, 0.000, 17:35:06.403
5, -422.62, -129.11, 186.43, -3274.79, 0.000, 0.000, 0.000, 17:35:06.403
6, -437.86, -140.69, 189.61, -3132.94, 0.000, 0.000, 0.000, 17:35:06.403
7, -479.98, -157.20, 195.42, -3039.74, 0.000, 0.000, 0.000, 17:35:06.418
8, -450.48, -135.56, 209.68, -3191.89, 0.000, 0.000, 0.000, 17:35:06.418
9, -410.01, -124.69, 179.12, -3188.96, 0.000, 0.000, 0.000, 17:35:06.433
10, -431.00, -129.12, 178.19, -3110.58, 0.000, 0.000, 0.000, 17:35:06.433
11, -471.15, -145.87, 204.79, -3068.96, 0.000, 0.000, 0.000, 17:35:06.433
12, -449.23, -143.17, 192.64, -3157.47, 0.000, 0.000, 0.000, 17:35:06.433
13, -412.18, -123.55, 183.45, -3250.33, 0.000, 0.000, 0.000, 17:35:06.448
14, -443.04, -139.56, 189.23, -3163.72, 0.000, 0.000, 0.000, 17:35:06.448
15, -471.26, -148.96, 207.99, -3036.10, 0.000, 0.000, 0.000, 17:35:06.462
16, -440.65, -132.00, 209.88, -3141.46, 0.000, 0.000, 0.000, 17:35:06.463
17, -404.36, -116.82, 185.93, -3243.04, 0.000, 0.000, 0.000, 17:35:06.463
18, -433.06, -137.00, 178.47, -3083.83, 0.000, 0.000, 0.000, 17:35:06.463
19, -465.32, -154.18, 206.16, -3035.60, 0.000, 0.000, 0.000, 17:35:06.478
20, -440.95, -137.77, 218.39, -3199.90, 0.000, 0.000, 0.000, 17:35:06.478
21, -405.86, -122.72, 177.25, -3213.31, 0.000, 0.000, 0.000, 17:35:06.493
22, -426.98, -126.76, 177.67, -3119.41, 0.000, 0.000, 0.000, 17:35:06.494
23, -469.03, -140.56, 195.87, -3072.56, 0.000, 0.000, 0.000, 17:35:06.494
24, -435.06, -122.92, 199.35, -3113.36, 0.000, 0.000, 0.000, 17:35:06.494
25, -404.74, -111.99, 188.02, -3220.54, 0.000, 0.000, 0.000, 17:35:06.508
26, -443.78, -131.73, 175.64, -3199.01, 0.000, 0.000, 0.000, 17:35:06.508
27, -470.66, -145.30, 203.20, -3063.76, 0.000, 0.000, 0.000, 17:35:06.522
28, -449.78, -136.45, 205.09, -3150.45, 0.000, 0.000, 0.000, 17:35:06.523
29, -412.82, -115.77, 194.29, -3232.94, 0.000, 0.000, 0.000, 17:35:06.523
30, -434.96, -132.16, 182.08, -3102.26, 0.000, 0.000, 0.000, 17:35:06.523
31, -479.21, -150.08, 193.94, -3059.96, 0.000, 0.000, 0.000, 17:35:06.538
32, -451.49, -134.75, 204.28, -3175.56, 0.000, 0.000, 0.000, 17:35:06.538
33, -406.61, -110.41, 181.34, -3192.03, 0.000, 0.000, 0.000, 17:35:06.553
34, -432.86, -125.55, 177.17, -3127.98, 0.000, 0.000, 0.000, 17:35:06.553
35, -477.52, -146.68, 199.51, -3092.95, 0.000, 0.000, 0.000, 17:35:06.553
36, -457.86, -138.51, 197.70, -3143.04, 0.000, 0.000, 0.000, 17:35:06.553
37, -419.48, -119.13, 188.51, -3233.69, 0.000, 0.000, 0.000, 17:35:06.568
38, -453.27, -139.37, 183.12, -3206.79, 0.000, 0.000, 0.000, 17:35:06.568
39, -477.01, -146.65, 210.59, -3053.04, 0.000, 0.000, 0.000, 17:35:06.598
40, -453.16, -129.75, 217.66, -3159.99, 0.000, 0.000, 0.000, 17:35:06.598
41, -417.98, -122.19, 199.56, -3250.24, 0.000, 0.000, 0.000, 17:35:06.598
42, -441.79, -133.61, 194.77, -3118.18, 0.000, 0.000, 0.000, 17:35:06.598
43, -483.03, -154.73, 200.96, -3077.94, 0.000, 0.000, 0.000, 17:35:06.599
44, -447.61, -130.28, 226.33, -3128.80, 0.000, 0.000, 0.000, 17:35:06.603
45, -407.84, -120.97, 187.30, -3199.99, 0.000, 0.000, 0.000, 17:35:06.603
46, -431.22, -132.02, 186.39, -3156.39, 0.000, 0.000, 0.000, 17:35:06.603
47, -491.88, -156.76, 223.36, -3207.14, 0.000, 0.000, 0.000, 17:35:06.613
48, -442.33, -138.66, 202.80, -3143.25, 0.000, 0.000, 0.000, 17:35:06.613
49, -407.97, -118.55, 187.50, -3201.28, 0.000, 0.000, 0.000, 17:35:06.628
50, -442.10, -136.03, 177.25, -3188.56, 0.000, 0.000, 0.000, 17:35:06.628
51, -467.99, -146.74, 197.67, -3045.89, 0.000, 0.000, 0.000, 17:35:06.642
52, -446.66, -137.20, 215.51, -3151.08, 0.000, 0.000, 0.000, 17:35:06.643
53, -406.96, -115.99, 188.44, -3247.31, 0.000, 0.000, 0.000, 17:35:06.643
54, -429.44, -136.22, 184.75, -3131.44, 0.000, 0.000, 0.000, 17:35:06.643
55, -472.62, -152.68, 201.06, -3098.18, 0.000, 0.000, 0.000, 17:35:06.658
56, -456.98, -137.39, 217.15, -3222.04, 0.000, 0.000, 0.000, 17:35:06.658
57, -408.21, -119.14, 186.32, -3217.24, 0.000, 0.000, 0.000, 17:35:06.673
58, -431.94, -135.19, 179.64, -3145.93, 0.000, 0.000, 0.000, 17:35:06.673
59, -480.56, -160.13, 195.93, -3120.85, 0.000, 0.000, 0.000, 17:35:06.673
60, -446.19, -133.43, 213.88, -3120.30, 0.000, 0.000, 0.000, 17:35:06.673
61, -414.15, -123.65, 185.40, -3251.05, 0.000, 0.000, 0.000, 17:35:06.688
62, -440.05, -138.50, 188.40, -3185.38, 0.000, 0.000, 0.000, 17:35:06.688
63, -472.68, -149.70, 200.17, -3048.44, 0.000, 0.000, 0.000, 17:35:06.702
64, -453.07, -146.65, 197.12, -3164.36, 0.000, 0.000, 0.000, 17:35:06.703
65, -417.06, -124.35, 177.12, -3257.38, 0.000, 0.000, 0.000, 17:35:06.703
66, -433.87, -137.18, 178.25, -3136.44, 0.000, 0.000, 0.000, 17:35:06.703
67, -479.35, -155.22, 194.29, -3071.94, 0.000, 0.000, 0.000, 17:35:06.718
68, -458.67, -136.17, 214.54, -3186.37, 0.000, 0.000, 0.000, 17:35:06.718
69, -416.74, -131.53, 175.08, -3211.81, 0.000, 0.000, 0.000, 17:35:06.732
70, -439.16, -140.04, 168.83, -3152.42, 0.000, 0.000, 0.000, 17:35:06.733
71, -483.04, -154.66, 201.72, -3085.77, 0.000, 0.000, 0.000, 17:35:06.733
72, -452.83, -134.83, 210.92, -3122.50, 0.000, 0.000, 0.000, 17:35:06.733
73, -413.38, -116.29, 197.59, -3198.67, 0.000, 0.000, 0.000, 17:35:06.748
74, -442.07, -137.44, 192.69, -3196.08, 0.000, 0.000, 0.000, 17:35:06.748
75, -473.56, -156.88, 193.74, -3027.00, 0.000, 0.000, 0.000, 17:35:06.763
76, -457.00, -146.97, 201.75, -3127.52, 0.000, 0.000, 0.000, 17:35:06.763
77, -409.02, -120.30, 192.53, -3217.46, 0.000, 0.000, 0.000, 17:35:06.763
78, -425.45, -134.19, 185.61, -3102.76, 0.000, 0.000, 0.000, 17:35:06.763
79, -468.70, -151.16, 201.61, -3027.53, 0.000, 0.000, 0.000, 17:35:06.778
80, -449.65, -134.69, 217.39, -3168.87, 0.000, 0.000, 0.000, 17:35:06.778
81, -396.00, -121.07, 194.60, -3209.97, 0.000, 0.000, 0.000, 17:35:06.792
82, -425.73, -131.23, 189.62, -3149.94, 0.000, 0.000, 0.000, 17:35:06.793
83, -479.06, -155.49, 203.97, -3093.72, 0.000, 0.000, 0.000, 17:35:06.793
84, -441.44, -127.88, 201.46, -3097.14, 0.000, 0.000, 0.000, 17:35:06.793
85, -401.27, -113.89, 186.42, -3202.70, 0.000, 0.000, 0.000, 17:35:06.808
86, -436.12, -131.43, 187.04, -3180.27, 0.000, 0.000, 0.000, 17:35:06.808
87, -472.39, -154.52, 195.43, -3060.43, 0.000, 0.000, 0.000, 17:35:06.823
88, -446.94, -135.13, 207.51, -3129.22, 0.000, 0.000, 0.000, 17:35:06.823
89, -410.25, -124.81, 187.18, -3257.91, 0.000, 0.000, 0.000, 17:35:06.823
90, -424.62, -128.09, 181.23, -3128.57, 0.000, 0.000, 0.000, 17:35:06.823
91, -473.76, -152.43, 201.98, -3090.58, 0.000, 0.000, 0.000, 17:35:06.838
92, -455.29, -140.52, 212.68, -3231.00, 0.000, 0.000, 0.000, 17:35:06.838
93, -409.46, -126.61, 187.70, -3221.45, 0.000, 0.000, 0.000, 17:35:06.852
94, -426.69, -129.26, 182.50, -3143.59, 0.000, 0.000, 0.000, 17:35:06.853
95, -468.44, -151.22, 199.20, -3099.90, 0.000, 0.000, 0.000, 17:35:06.853
96, -441.87, -137.53, 211.10, -3085.60, 0.000, 0.000, 0.000, 17:35:06.853
97, -400.16, -113.84, 179.74, -3197.02, 0.000, 0.000, 0.000, 17:35:06.868
98, -439.98, -135.06, 179.00, -3211.86, 0.000, 0.000, 0.000, 17:35:06.868
99, -475.41, -152.80, 197.39, -3059.75, 0.000, 0.000, 0.000, 17:35:06.882
100, -452.94, -138.26, 210.60, -3116.82, 0.000, 0.000, 0.000, 17:35:06.883
101, -410.55, -117.41, 188.35, -3221.27, 0.000, 0.000, 0.000, 17:35:06.883
102, -441.02, -137.71, 173.10, -3131.26, 0.000, 0.000, 0.000, 17:35:06.883
103, -471.81, -152.40, 204.25, -3063.72, 0.000, 0.000, 0.000, 17:35:06.913
104, -463.39, -146.50, 205.38, -3195.87, 0.000, 0.000, 0.000, 17:35:06.913
105, -413.55, -124.69, 179.55, -3211.57, 0.000, 0.000, 0.000, 17:35:06.913
106, -428.93, -133.58, 185.34, -3142.25, 0.000, 0.000, 0.000, 17:35:06.913
107, -467.52, -148.17, 203.22, -3076.29, 0.000, 0.000, 0.000, 17:35:06.914
108, -444.30, -137.12, 208.76, -3117.06, 0.000, 0.000, 0.000, 17:35:06.914
109, -402.54, -116.14, 186.42, -3207.16, 0.000, 0.000, 0.000, 17:35:06.928
110, -431.20, -133.07, 190.42, -3214.66, 0.000, 0.000, 0.000, 17:35:06.928
111, -466.84, -149.77, 192.20, -3057.80, 0.000, 0.000, 0.000, 17:35:06.943
112, -442.89, -125.37, 212.47, -3112.32, 0.000, 0.000, 0.000, 17:35:06.943
113, -404.08, -110.89, 188.24, -3232.09, 0.000, 0.000, 0.000, 17:35:06.943
114, -422.12, -126.20, 174.23, -3123.21, 0.000, 0.000, 0.000, 17:35:06.943
115, -466.18, -147.20, 195.42, -3077.84, 0.000, 0.000, 0.000, 17:35:06.958
116, -452.73, -135.16, 216.53, -3177.47, 0.000, 0.000, 0.000, 17:35:06.958
117, -398.47, -112.12, 188.97, -3195.87, 0.000, 0.000, 0.000, 17:35:06.973
118, -428.64, -132.87, 179.16, -3145.64, 0.000, 0.000, 0.000, 17:35:06.973
119, -469.95, -142.97, 216.24, -3070.36, 0.000, 0.000, 0.000, 17:35:06.974
120, -440.72, -127.26, 226.13, -3107.16, 0.000, 0.000, 0.000, 17:35:06.974
121, -409.54, -115.24, 191.46, -3210.13, 0.000, 0.000, 0.000, 17:35:06.988
122, -433.39, -128.68, 172.78, -3180.96, 0.000, 0.000, 0.000, 17:35:06.988
123, -461.48, -138.00, 198.90, -3036.65, 0.000, 0.000, 0.000, 17:35:07.003
124, -444.85, -134.71, 205.69, -3108.22, 0.000, 0.000, 0.000, 17:35:07.003
125, -412.92, -119.41, 178.54, -3236.32, 0.000, 0.000, 0.000, 17:35:07.003
126, -413.95, -121.41, 191.42, -3109.53, 0.000, 0.000, 0.000, 17:35:07.003
127, -465.43, -152.01, 186.47, -3036.25, 0.000, 0.000, 0.000, 17:35:07.018
128, -445.33, -135.24, 209.00, -3174.66, 0.000, 0.000, 0.000, 17:35:07.018
129, -403.52, -118.08, 183.55, -3214.07, 0.000, 0.000, 0.000, 17:35:07.033
130, -424.43, -135.86, 178.08, -3156.01, 0.000, 0.000, 0.000, 17:35:07.033
131, -463.18, -144.27, 201.06, -3085.64, 0.000, 0.000, 0.000, 17:35:07.033
132, -446.20, -139.77, 204.42, -3132.09, 0.000, 0.000, 0.000, 17:35:07.033
133, -410.97, -123.93, 184.26, -3254.74, 0.000, 0.000, 0.000, 17:35:07.048
134, -426.96, -130.76, 190.02, -3201.17, 0.000, 0.000, 0.000, 17:35:07.048
135, -470.57, -152.78, 209.01, -3111.47, 0.000, 0.000, 0.000, 17:35:07.063
136, -453.93, -136.14, 206.40, -3131.09, 0.000, 0.000, 0.000, 17:35:07.063
137, -415.39, -125.32, 186.42, -3251.48, 0.000, 0.000, 0.000, 17:35:07.063
138, -436.19, -141.53, 168.18, -3149.26, 0.000, 0.000, 0.000, 17:35:07.063
139, -470.59, -146.00, 200.72, -3051.91, 0.000, 0.000, 0.000, 17:35:07.078
140, -449.55, -132.75, 220.77, -3183.33, 0.000, 0.000, 0.000, 17:35:07.078
141, -410.88, -115.18, 193.10, -3216.58, 0.000, 0.000, 0.000, 17:35:07.092
142, -424.76, -126.44, 181.27, -3177.64, 0.000, 0.000, 0.000, 17:35:07.093
143, -454.12, -130.34, 207.67, -3098.96, 0.000, 0.000, 0.000, 17:35:07.093
144, -419.70, -110.54, 215.48, -3136.38, 0.000, 0.000, 0.000, 17:35:07.093
145, -365.85, -81.60, 189.11, -3237.93, 0.000, 0.000, 0.000, 17:35:07.108
146, -371.11, -70.79, 195.36, -3195.68, 0.000, 0.000, 0.000, 17:35:07.108
147, -393.13, -77.57, 219.12, -3019.31, 0.000, 0.000, 0.000, 17:35:07.122
148, -347.44, -47.00, 230.12, -3084.62, 0.000, 0.000, 0.000, 17:35:07.123
149, -307.54, -19.47, 193.00, -3222.80, 0.000, 0.000, 0.000, 17:35:07.123
150, -288.32, -2.56, 187.89, -3107.42, 0.000, 0.000, 0.000, 17:35:07.123
151, -312.55, -5.25, 221.34, -3000.74, 0.000, 0.000, 0.000, 17:35:07.138
152, -262.23, 25.76, 217.62, -3141.50, 0.000, 0.000, 0.000, 17:35:07.138
153, -207.15, 61.11, 202.08, -3169.89, 0.000, 0.000, 0.000, 17:35:07.153
154, -213.33, 59.85, 190.27, -3123.22, 0.000, 0.000, 0.000, 17:35:07.153
155, -259.69, 42.69, 211.35, -3063.47, 0.000, 0.000, 0.000, 17:35:07.153
156, -238.00, 52.10, 218.63, -3067.85, 0.000, 0.000, 0.000, 17:35:07.153
157, -192.81, 77.61, 204.83, -3193.90, 0.000, 0.000, 0.000, 17:35:07.168
158, -239.85, 45.06, 199.86, -3215.97, 0.000, 0.000, 0.000, 17:35:07.168
159, -278.46, 18.51, 212.32, -3066.54, 0.000, 0.000, 0.000, 17:35:07.183
160, -270.75, 21.21, 230.33, -3083.77, 0.000, 0.000, 0.000, 17:35:07.183
161, -252.30, 15.79, 209.41, -3224.15, 0.000, 0.000, 0.000, 17:35:07.183
162, -285.32, -2.82, 186.51, -3144.25, 0.000, 0.000, 0.000, 17:35:07.183
163, -343.85, -38.88, 207.54, -3035.34, 0.000, 0.000, 0.000, 17:35:07.198
164, -352.47, -47.99, 223.09, -3154.04, 0.000, 0.000, 0.000, 17:35:07.198
165, -335.30, -53.81, 192.89, -3183.34, 0.000, 0.000, 0.000, 17:35:07.213
166, -365.96, -79.15, 190.91, -3152.02, 0.000, 0.000, 0.000, 17:35:07.213
167, -432.24, -117.41, 197.79, -3089.27, 0.000, 0.000, 0.000, 17:35:07.213
168, -425.47, -116.54, 210.15, -3127.54, 0.000, 0.000, 0.000, 17:35:07.213
169, -397.90, -107.98, 190.16, -3215.04, 0.000, 0.000, 0.000, 17:35:07.242
170, -438.71, -143.62, 186.04, -3227.27, 0.000, 0.000, 0.000, 17:35:07.243
171, -486.79, -165.27, 192.57, -3062.75, 0.000, 0.000, 0.000, 17:35:07.243
172, -481.55, -164.19, 203.44, -3118.83, 0.000, 0.000, 0.000, 17:35:07.243
173, -442.68, -152.44, 189.46, -3188.87, 0.000, 0.000, 0.000, 17:35:07.244
174, -472.06, -186.54, 167.85, -3141.13, 0.000, 0.000, 0.000, 17:35:07.244
175, -509.67, -190.68, 211.31, -3059.57, 0.000, 0.000, 0.000, 17:35:07.258
176, -522.71, -195.37, 220.04, -3242.33, 0.000, 0.000, 0.000, 17:35:07.258
177, -472.12, -174.55, 189.12, -3204.15, 0.000, 0.000, 0.000, 17:35:07.272
178, -493.14, -193.99, 173.35, -3153.87, 0.000, 0.000, 0.000, 17:35:07.273
179, -543.76, -215.49, 199.10, -3105.84, 0.000, 0.000, 0.000, 17:35:07.273
180, -523.31, -207.99, 208.08, -3109.19, 0.000, 0.000, 0.000, 17:35:07.273
181, -482.07, -185.59, 192.30, -3249.37, 0.000, 0.000, 0.000, 17:35:07.288
182, -508.75, -190.78, 185.67, -3218.09, 0.000, 0.000, 0.000, 17:35:07.288
183, -540.63, -210.43, 202.34, -3075.49, 0.000, 0.000, 0.000, 17:35:07.303
184, -522.04, -195.10, 214.47, -3121.87, 0.000, 0.000, 0.000, 17:35:07.303
185, -484.65, -183.10, 180.93, -3257.13, 0.000, 0.000, 0.000, 17:35:07.303
186, -486.36, -181.09, 179.80, -3156.73, 0.000, 0.000, 0.000, 17:35:07.303
187, -532.28, -210.75, 194.35, -3066.33, 0.000, 0.000, 0.000, 17:35:07.318
188, -527.35, -197.28, 213.51, -3169.86, 0.000, 0.000, 0.000, 17:35:07.318
189, -475.72, -174.81, 179.18, -3212.22, 0.000, 0.000, 0.000, 17:35:07.333
190, -490.39, -183.76, 174.52, -3193.74, 0.000, 0.000, 0.000, 17:35:07.333
191, -526.93, -196.22, 202.50, -3077.57, 0.000, 0.000, 0.000, 17:35:07.333
192, -503.85, -181.08, 213.80, -3115.08, 0.000, 0.000, 0.000, 17:35:07.333
193, -464.14, -166.21, 177.14, -3215.19, 0.000, 0.000, 0.000, 17:35:07.348
194, -489.63, -181.61, 179.48, -3229.98, 0.000, 0.000, 0.000, 17:35:07.348
195, -526.25, -192.60, 204.67, -3092.15, 0.000, 0.000, 0.000, 17:35:07.362
196, -504.98, -174.44, 221.36, -3131.53, 0.000, 0.000, 0.000, 17:35:07.363
197, -469.70, -165.75, 193.26, -3292.26, 0.000, 0.000, 0.000, 17:35:07.363
198, -467.28, -158.79, 181.17, -3165.74, 0.000, 0.000, 0.000, 17:35:07.363
199, -513.56, -179.65, 204.11, -3076.92, 0.000, 0.000, 0.000, 17:35:07.377
200, -503.27, -173.29, 218.86, -3195.30, 0.000, 0.000, 0.000, 17:35:07.378
0, -448.10, -148.21, 192.34, -3195.14, 0.000, 0.000, 0.000, 17:35:07.378
1, -460.71, -161.76, 184.07, -3145.37, 0.000, 0.000, 0.000, 17:35:07.393
2, -507.88, -186.62, 205.01, -3126.66, 0.000, 0.000, 0.000, 17:35:07.393
3, -490.44, -173.54, 205.18, -3099.31, 0.000, 0.000, 0.000, 17:35:07.408
4, -443.85, -155.40, 191.56, -3199.44, 0.000, 0.000, 0.000, 17:35:07.408
5, -464.37, -159.99, 178.67, -3215.15, 0.000, 0.000, 0.000, 17:35:07.408
6, -494.90, -175.23, 204.74, -3061.18, 0.000, 0.000, 0.000, 17:35:07.408
7, -487.11, -171.39, 210.47, -3118.18, 0.000, 0.000, 0.000, 17:35:07.423
8, -445.51, -147.50, 197.01, -3266.57, 0.000, 0.000, 0.000, 17:35:07.423
9, -441.64, -147.73, 178.84, -3161.65, 0.000, 0.000, 0.000, 17:35:07.438
10, -481.67, -162.44, 203.10, -3061.10, 0.000, 0.000, 0.000, 17:35:07.438
11, -474.54, -155.65, 209.57, -3156.73, 0.000, 0.000, 0.000, 17:35:07.438
12, -430.99, -127.36, 187.99, -3216.14, 0.000, 0.000, 0.000, 17:35:07.438
13, -430.43, -131.37, 183.71, -3146.68, 0.000, 0.000, 0.000, 17:35:07.453
14, -483.46, -163.97, 201.94, -3115.59, 0.000, 0.000, 0.000, 17:35:07.453
15, -461.52, -145.96, 209.56, -3102.66, 0.000, 0.000, 0.000, 17:35:07.468
16, -422.93, -124.69, 188.25, -3223.66, 0.000, 0.000, 0.000, 17:35:07.468
17, -438.24, -137.43, 182.07, -3189.83, 0.000, 0.000, 0.000, 17:35:07.468
18, -480.91, -157.86, 195.95, -3037.30, 0.000, 0.000, 0.000, 17:35:07.468
19, -476.35, -155.92, 212.46, -3109.98, 0.000, 0.000, 0.000, 17:35:07.483
20, -431.77, -133.62, 202.38, -3267.04, 0.000, 0.000, 0.000, 17:35:07.483
21, -441.86, -145.48, 180.16, -3146.23, 0.000, 0.000, 0.000, 17:35:07.498
22, -476.21, -155.81, 206.62, -3047.54, 0.000, 0.000, 0.000, 17:35:07.498
23, -469.01, -148.19, 223.51, -3169.59, 0.000, 0.000, 0.000, 17:35:07.498
24, -420.43, -123.30, 207.13, -3226.05, 0.000, 0.000, 0.000, 17:35:07.498
25, -440.54, -137.45, 181.53, -3207.35, 0.000, 0.000, 0.000, 17:35:07.513
26, -490.15, -162.60, 216.65, -3136.20, 0.000, 0.000, 0.000, 17:35:07.513
27, -463.02, -143.60, 221.23, -3081.49, 0.000, 0.000, 0.000, 17:35:07.529
28, -422.49, -131.74, 194.14, -3214.63, 0.000, 0.000, 0.000, 17:35:07.529
29, -435.27, -137.53, 187.02, -3191.93, 0.000, 0.000, 0.000, 17:35:07.529
30, -473.96, -154.95, 204.12, -3050.05, 0.000, 0.000, 0.000, 17:35:07.529
31, -460.77, -141.28, 227.56, -3123.46, 0.000, 0.000, 0.000, 17:35:07.558
32, -426.24, -128.42, 196.36, -3280.58, 0.000, 0.000, 0.000, 17:35:07.558
33, -430.98, -133.95, 177.59, -3154.03, 0.000, 0.000, 0.000, 17:35:07.559
34, -473.10, -153.82, 207.38, -3080.43, 0.000, 0.000, 0.000, 17:35:07.559
35, -453.92, -136.14, 221.85, -3097.73, 0.000, 0.000, 0.000, 17:35:07.559
36, -417.22, -123.18, 192.63, -3220.60, 0.000, 0.000, 0.000, 17:35:07.559
37, -430.63, -129.49, 189.81, -3186.32, 0.000, 0.000, 0.000, 17:35:07.573
38, -485.35, -151.59, 218.28, -3200.22, 0.000, 0.000, 0.000, 17:35:07.573
39, -463.50, -142.04, 205.42, -3131.20, 0.000, 0.000, 0.000, 17:35:07.588
40, -415.04, -114.62, 193.98, -3217.35, 0.000, 0.000, 0.000, 17:35:07.588
41, -422.98, -121.28, 185.53, -3193.17, 0.000, 0.000, 0.000, 17:35:07.588
42, -461.78, -146.65, 202.61, -3054.95, 0.000, 0.000, 0.000, 17:35:07.588
43, -442.06, -128.51, 221.12, -3102.93, 0.000, 0.000, 0.000, 17:35:07.603
44, -408.23, -111.32, 205.84, -3258.88, 0.000, 0.000, 0.000, 17:35:07.603
45, -413.58, -121.46, 173.06, -3163.97, 0.000, 0.000, 0.000, 17:35:07.617
46, -456.05, -142.56, 203.51, -3054.80, 0.000, 0.000, 0.000, 17:35:07.618
47, -447.30, -135.23, 224.14, -3142.69, 0.000, 0.000, 0.000, 17:35:07.618
48, -421.51, -122.30, 208.91, -3193.15, 0.000, 0.000, 0.000, 17:35:07.618
49, -409.36, -118.92, 175.19, -3175.97, 0.000, 0.000, 0.000, 17:35:07.633
50, -438.05, -123.74, 199.68, -3114.01, 0.000, 0.000, 0.000, 17:35:07.633
51, -422.52, -108.41, 203.49, -3095.43, 0.000, 0.000, 0.000, 17:35:07.648
52, -361.34, -73.92, 199.84, -3202.85, 0.000, 0.000, 0.000, 17:35:07.648
53, -347.31, -70.89, 183.62, -3194.97, 0.000, 0.000, 0.000, 17:35:07.648
54, -388.47, -82.09, 205.26, -3071.13, 0.000, 0.000, 0.000, 17:35:07.648
55, -378.15, -71.57, 226.36, -3131.33, 0.000, 0.000, 0.000, 17:35:07.663
56, -345.33, -61.56, 213.98, -3259.74, 0.000, 0.000, 0.000, 17:35:07.663
57, -361.30, -76.52, 188.33, -3149.45, 0.000, 0.000, 0.000, 17:35:07.679
58, -406.81, -90.80, 206.76, -3058.67, 0.000, 0.000, 0.000, 17:35:07.679
59, -411.36, -100.37, 221.74, -3106.89, 0.000, 0.000, 0.000, 17:35:07.679
60, -377.78, -92.10, 199.84, -3187.69, 0.000, 0.000, 0.000, 17:35:07.679
61, -400.07, -105.12, 186.19, -3176.68, 0.000, 0.000, 0.000, 17:35:07.693
62, -446.26, -124.56, 226.39, -3112.51, 0.000, 0.000, 0.000, 17:35:07.693
63, -441.22, -118.54, 220.01, -3066.13, 0.000, 0.000, 0.000, 17:35:07.708
64, -401.60, -106.24, 199.32, -3172.41, 0.000, 0.000, 0.000, 17:35:07.708
65, -413.69, -114.70, 195.20, -3159.61, 0.000, 0.000, 0.000, 17:35:07.708
66, -457.28, -132.53, 203.99, -3046.97, 0.000, 0.000, 0.000, 17:35:07.708
67, -450.93, -127.97, 222.92, -3107.64, 0.000, 0.000, 0.000, 17:35:07.723
68, -415.15, -109.88, 208.45, -3271.70, 0.000, 0.000, 0.000, 17:35:07.723
69, -418.24, -123.10, 184.37, -3164.09, 0.000, 0.000, 0.000, 17:35:07.738
70, -464.82, -142.16, 204.62, -3070.09, 0.000, 0.000, 0.000, 17:35:07.738
71, -458.43, -134.21, 228.93, -3137.53, 0.000, 0.000, 0.000, 17:35:07.738
72, -407.52, -110.99, 204.09, -3158.44, 0.000, 0.000, 0.000, 17:35:07.738
73, -418.21, -115.77, 182.08, -3113.48, 0.000, 0.000, 0.000, 17:35:07.753
74, -476.78, -150.91, 202.84, -3083.00, 0.000, 0.000, 0.000, 17:35:07.753
75, -454.28, -134.52, 211.05, -3064.95, 0.000, 0.000, 0.000, 17:35:07.768
76, -409.86, -118.50, 192.27, -3186.62, 0.000, 0.000, 0.000, 17:35:07.768
77, -425.82, -130.25, 183.30, -3187.95, 0.000, 0.000, 0.000, 17:35:07.768
78, -473.03, -154.77, 202.20, -3063.49, 0.000, 0.000, 0.000, 17:35:07.768
79, -458.44, -142.15, 220.07, -3111.78, 0.000, 0.000, 0.000, 17:35:07.783
80, -427.55, -133.00, 192.80, -3248.74, 0.000, 0.000, 0.000, 17:35:07.783
81, -426.41, -136.70, 180.75, -3163.39, 0.000, 0.000, 0.000, 17:35:07.798
82, -461.04, -141.01, 202.95, -3069.58, 0.000, 0.000, 0.000, 17:35:07.798
83, -462.00, -141.82, 204.89, -3131.50, 0.000, 0.000, 0.000, 17:35:07.798
84, -405.87, -107.36, 214.41, -3182.90, 0.000, 0.000, 0.000, 17:35:07.798
85, -416.80, -116.37, 188.89, -3167.21, 0.000, 0.000, 0.000, 17:35:07.813
86, -476.89, -148.40, 185.78, -3118.48, 0.000, 0.000, 0.000, 17:35:07.813
87, -459.77, -140.84, 201.87, -3094.44, 0.000, 0.000, 0.000, 17:35:07.827
88, -417.08, -123.41, 174.40, -3226.38, 0.000, 0.000, 0.000, 17:35:07.828
89, -416.25, -123.83, 179.80, -3197.93, 0.000, 0.000, 0.000, 17:35:07.828
90, -464.19, -141.35, 201.55, -3074.25, 0.000, 0.000, 0.000, 17:35:07.828
91, -463.17, -142.27, 207.72, -3130.82, 0.000, 0.000, 0.000, 17:35:07.843
92, -418.44, -115.91, 199.49, -3250.59, 0.000, 0.000, 0.000, 17:35:07.843
93, -418.34, -119.58, 187.18, -3159.61, 0.000, 0.000, 0.000, 17:35:07.873
94, -460.14, -140.92, 214.34, -3056.03, 0.000, 0.000, 0.000, 17:35:07.873
95, -463.47, -134.80, 224.45, -3111.69, 0.000, 0.000, 0.000, 17:35:07.873
96, -403.47, -100.72, 210.20, -3163.32, 0.000, 0.000, 0.000, 17:35:07.873
97, -414.18, -119.01, 184.98, -3164.61, 0.000, 0.000, 0.000, 17:35:07.874
98, -464.13, -143.72, 201.06, -3051.20, 0.000, 0.000, 0.000, 17:35:07.874
99, -453.39, -135.55, 214.62, -3080.86, 0.000, 0.000, 0.000, 17:35:07.875
100, -411.53, -114.81, 201.83, -3192.57, 0.000, 0.000, 0.000, 17:35:07.875
101, -443.28, -129.97, 201.36, -3323.21, 0.000, 0.000, 0.000, 17:35:07.888
102, -470.07, -152.07, 206.73, -3048.05, 0.000, 0.000, 0.000, 17:35:07.888
103, -449.05, -129.69, 213.90, -3097.67, 0.000, 0.000, 0.000, 17:35:07.903
104, -400.30, -100.27, 194.71, -3241.11, 0.000, 0.000, 0.000, 17:35:07.903
105, -397.94, -99.48, 177.84, -3155.87, 0.000, 0.000, 0.000, 17:35:07.917
106, -425.42, -111.04, 197.86, -3058.27, 0.000, 0.000, 0.000, 17:35:07.918
107, -428.32, -107.74, 218.84, -3107.91, 0.000, 0.000, 0.000, 17:35:07.918
108, -390.95, -92.74, 200.48, -3195.40, 0.000, 0.000, 0.000, 17:35:07.918
109, -397.59, -98.35, 186.74, -3174.87, 0.000, 0.000, 0.000, 17:35:07.933
110, -453.38, -132.52, 213.03, -3119.00, 0.000, 0.000, 0.000, 17:35:07.933
111, -435.35, -120.24, 222.98, -3078.25, 0.000, 0.000, 0.000, 17:35:07.948
112, -398.67, -104.85, 195.47, -3187.28, 0.000, 0.000, 0.000, 17:35:07.948
113, -403.70, -112.18, 190.70, -3226.91, 0.000, 0.000, 0.000, 17:35:07.948
114, -449.50, -133.19, 208.86, -3041.92, 0.000, 0.000, 0.000, 17:35:07.948
115, -443.28, -121.22, 224.09, -3093.61, 0.000, 0.000, 0.000, 17:35:07.963
116, -411.15, -115.29, 207.23, -3245.07, 0.000, 0.000, 0.000, 17:35:07.963
117, -408.13, -114.00, 192.15, -3136.28, 0.000, 0.000, 0.000, 17:35:07.978
118, -463.86, -143.63, 197.96, -3051.74, 0.000, 0.000, 0.000, 17:35:07.978
119, -456.22, -137.17, 219.63, -3120.18, 0.000, 0.000, 0.000, 17:35:07.978
120, -401.60, -112.81, 197.92, -3157.48, 0.000, 0.000, 0.000, 17:35:07.978
121, -410.92, -126.02, 178.29, -3159.11, 0.000, 0.000, 0.000, 17:35:07.993
122, -461.69, -140.17, 213.76, -3118.45, 0.000, 0.000, 0.000, 17:35:07.993
123, -450.18, -135.39, 233.29, -3066.31, 0.000, 0.000, 0.000, 17:35:08.022
124, -413.25, -115.28, 196.39, -3180.59, 0.000, 0.000, 0.000, 17:35:08.023
125, -415.76, -120.08, 192.54, -3194.69, 0.000, 0.000, 0.000, 17:35:08.023
126, -467.06, -150.81, 197.27, -3062.71, 0.000, 0.000, 0.000, 17:35:08.023
127, -457.04, -140.75, 220.10, -3103.79, 0.000, 0.000, 0.000, 17:35:08.024
128, -420.86, -119.38, 209.19, -3273.38, 0.000, 0.000, 0.000, 17:35:08.024
129, -421.61, -125.61, 182.91, -3154.37, 0.000, 0.000, 0.000, 17:35:08.024
130, -462.49, -145.74, 201.90, -3082.43, 0.000, 0.000, 0.000, 17:35:08.025
131, -480.88, -142.75, 230.95, -3277.40, 0.000, 0.000, 0.000, 17:35:08.038
132, -417.91, -122.15, 189.55, -3204.49, 0.000, 0.000, 0.000, 17:35:08.038
133, -425.28, -125.06, 176.18, -3163.05, 0.000, 0.000, 0.000, 17:35:08.053
134, -461.80, -138.13, 202.67, -3078.10, 0.000, 0.000, 0.000, 17:35:08.053
135, -458.80, -135.18, 216.04, -3089.90, 0.000, 0.000, 0.000, 17:35:08.067
136, -418.76, -120.08, 193.25, -3205.38, 0.000, 0.000, 0.000, 17:35:08.068
137, -422.13, -122.39, 178.83, -3229.81, 0.000, 0.000, 0.000, 17:35:08.068
138, -461.44, -141.48, 195.91, -3076.11, 0.000, 0.000, 0.000, 17:35:08.068
139, -454.96, -138.14, 221.72, -3082.84, 0.000, 0.000, 0.000, 17:35:08.083
140, -407.33, -112.06, 207.35, -3233.83, 0.000, 0.000, 0.000, 17:35:08.083
141, -407.24, -122.05, 181.56, -3157.91, 0.000, 0.000, 0.000, 17:35:08.097
142, -455.48, -144.36, 203.47, -3042.58, 0.000, 0.000, 0.000, 17:35:08.098
143, -448.81, -139.16, 220.20, -3107.39, 0.000, 0.000, 0.000, 17:35:08.098
144, -407.05, -115.72, 195.52, -3175.85, 0.000, 0.000, 0.000, 17:35:08.098
145, -417.00, -125.21, 180.87, -3177.77, 0.000, 0.000, 0.000, 17:35:08.113
146, -466.74, -149.91, 199.24, -3124.54, 0.000, 0.000, 0.000, 17:35:08.113
147, -448.73, -130.52, 213.99, -3059.48, 0.000, 0.000, 0.000, 17:35:08.128
148, -399.69, -109.30, 190.70, -3193.57, 0.000, 0.000, 0.000, 17:35:08.128
149, -400.55, -114.25, 186.67, -3141.09, 0.000, 0.000, 0.000, 17:35:08.128
150, -455.78, -137.57, 197.91, -3058.13, 0.000, 0.000, 0.000, 17:35:08.129
151, -450.73, -135.02, 210.85, -3054.51, 0.000, 0.000, 0.000, 17:35:08.161
152, -409.46, -113.98, 204.40, -3241.70, 0.000, 0.000, 0.000, 17:35:08.161
153, -410.58, -119.14, 163.62, -3166.19, 0.000, 0.000, 0.000, 17:35:08.161
154, -450.98, -136.25, 207.58, -3055.50, 0.000, 0.000, 0.000, 17:35:08.161
155, -451.92, -132.06, 227.63, -3101.21, 0.000, 0.000, 0.000, 17:35:08.161
156, -404.89, -109.98, 189.26, -3185.20, 0.000, 0.000, 0.000, 17:35:08.161
157, -418.05, -117.67, 180.87, -3220.84, 0.000, 0.000, 0.000, 17:35:08.173
158, -461.11, -136.40, 216.13, -3112.68, 0.000, 0.000, 0.000, 17:35:08.173
159, -455.07, -137.25, 211.00, -3077.02, 0.000, 0.000, 0.000, 17:35:08.202
160, -408.63, -112.92, 200.33, -3213.68, 0.000, 0.000, 0.000, 17:35:08.203
161, -419.03, -118.50, 181.31, -3246.18, 0.000, 0.000, 0.000, 17:35:08.203
162, -468.68, -145.58, 194.79, -3083.43, 0.000, 0.000, 0.000, 17:35:08.203
163, -452.36, -132.71, 220.13, -3113.14, 0.000, 0.000, 0.000, 17:35:08.204
164, -405.26, -114.10, 197.05, -3196.30, 0.000, 0.000, 0.000, 17:35:08.204
165, -405.02, -113.56, 189.93, -3165.79, 0.000, 0.000, 0.000, 17:35:08.204
166, -449.52, -138.73, 223.94, -3072.70, 0.000, 0.000, 0.000, 17:35:08.204
167, -471.62, -138.57, 225.98, -3247.73, 0.000, 0.000, 0.000, 17:35:08.218
168, -402.69, -108.86, 188.46, -3161.37, 0.000, 0.000, 0.000, 17:35:08.218
169, -410.22, -121.58, 184.45, -3148.98, 0.000, 0.000, 0.000, 17:35:08.233
170, -452.97, -132.28, 209.91, -3097.99, 0.000, 0.000, 0.000, 17:35:08.233
171, -449.22, -126.37, 214.43, -3021.46, 0.000, 0.000, 0.000, 17:35:08.247
172, -412.40, -116.39, 190.43, -3175.84, 0.000, 0.000, 0.000, 17:35:08.248
173, -414.54, -124.51, 186.69, -3212.38, 0.000, 0.000, 0.000, 17:35:08.248
174, -459.15, -143.20, 207.17, -3058.92, 0.000, 0.000, 0.000, 17:35:08.248
175, -463.28, -147.79, 205.93, -3105.21, 0.000, 0.000, 0.000, 17:35:08.263
176, -414.36, -112.31, 207.43, -3257.42, 0.000, 0.000, 0.000, 17:35:08.263
177, -417.81, -124.45, 178.69, -3177.70, 0.000, 0.000, 0.000, 17:35:08.278
178, -463.65, -144.40, 206.49, -3089.25, 0.000, 0.000, 0.000, 17:35:08.278
179, -469.48, -145.83, 219.53, -3128.28, 0.000, 0.000, 0.000, 17:35:08.278
180, -417.87, -120.88, 200.14, -3208.32, 0.000, 0.000, 0.000, 17:35:08.278
181, -411.45, -117.58, 195.15, -3175.09, 0.000, 0.000, 0.000, 17:35:08.293
182, -472.65, -152.25, 212.58, -3102.37, 0.000, 0.000, 0.000, 17:35:08.293
183, -461.50, -142.25, 223.97, -3084.44, 0.000, 0.000, 0.000, 17:35:08.308
184, -413.13, -117.80, 201.72, -3208.32, 0.000, 0.000, 0.000, 17:35:08.308
185, -417.26, -122.97, 191.45, -3205.35, 0.000, 0.000, 0.000, 17:35:08.308
186, -457.61, -139.47, 205.48, -3080.90, 0.000, 0.000, 0.000, 17:35:08.308
187, -461.16, -133.89, 212.49, -3097.82, 0.000, 0.000, 0.000, 17:35:08.323
188, -420.44, -116.46, 197.66, -3247.05, 0.000, 0.000, 0.000, 17:35:08.323
189, -416.24, -118.33, 181.10, -3183.75, 0.000, 0.000, 0.000, 17:35:08.338
190, -464.00, -144.74, 202.71, -3082.39, 0.000, 0.000, 0.000, 17:35:08.338
191, -462.38, -139.96, 218.33, -3100.43, 0.000, 0.000, 0.000, 17:35:08.338
192, -411.09, -116.17, 201.18, -3171.98, 0.000, 0.000, 0.000, 17:35:08.338
193, -417.18, -124.28, 176.32, -3185.42, 0.000, 0.000, 0.000, 17:35:08.353
194, -462.55, -142.32, 207.05, -3108.98, 0.000, 0.000, 0.000, 17:35:08.353
195, -452.29, -135.50, 211.14, -3052.18, 0.000, 0.000, 0.000, 17:35:08.368
196, -409.85, -117.85, 198.87, -3200.93, 0.000, 0.000, 0.000, 17:35:08.368
197, -412.76, -122.10, 183.33, -3194.59, 0.000, 0.000, 0.000, 17:35:08.368
198, -462.18, -136.16, 193.57, -3058.94, 0.000, 0.000, 0.000, 17:35:08.368
199, -457.51, -138.01, 218.35, -3095.46, 0.000, 0.000, 0.000, 17:35:08.383
200, -415.33, -116.20, 216.36, -3239.66, 0.000, 0.000, 0.000, 17:35:08.383
0, -415.78, -122.13, 179.53, -3209.88, 0.000, 0.000, 0.000, 17:35:08.383
1, -463.59, -143.57, 196.24, -3097.25, 0.000, 0.000, 0.000, 17:35:08.398
2, -471.71, -141.53, 218.70, -3127.97, 0.000, 0.000, 0.000, 17:35:08.398
3, -415.21, -121.18, 193.60, -3181.96, 0.000, 0.000, 0.000, 17:35:08.413
4, -407.35, -119.11, 177.59, -3197.11, 0.000, 0.000, 0.000, 17:35:08.413
5, -469.34, -145.10, 194.76, -3107.93, 0.000, 0.000, 0.000, 17:35:08.413
6, -460.06, -140.32, 208.07, -3081.95, 0.000, 0.000, 0.000, 17:35:08.413
7, -421.58, -124.51, 186.94, -3214.23, 0.000, 0.000, 0.000, 17:35:08.428
8, -418.17, -119.89, 184.68, -3233.26, 0.000, 0.000, 0.000, 17:35:08.428
9, -459.57, -142.43, 192.23, -3077.79, 0.000, 0.000, 0.000, 17:35:08.442
10, -460.84, -144.26, 213.60, -3113.17, 0.000, 0.000, 0.000, 17:35:08.442
11, -416.41, -118.54, 200.83, -3246.17, 0.000, 0.000, 0.000, 17:35:08.443
12, -409.65, -112.09, 179.93, -3176.90, 0.000, 0.000, 0.000, 17:35:08.443
13, -457.86, -135.96, 190.27, -3079.36, 0.000, 0.000, 0.000, 17:35:08.458
14, -466.40, -139.69, 215.86, -3156.31, 0.000, 0.000, 0.000, 17:35:08.458
15, -414.31, -119.06, 200.80, -3213.40, 0.000, 0.000, 0.000, 17:35:08.473
16, -411.44, -119.00, 178.36, -3176.50, 0.000, 0.000, 0.000, 17:35:08.473
17, -462.88, -137.95, 187.99, -3112.86, 0.000, 0.000, 0.000, 17:35:08.473
18, -445.74, -124.81, 215.04, -3071.61, 0.000, 0.000, 0.000, 17:35:08.473
19, -410.21, -111.45, 189.56, -3183.61, 0.000, 0.000, 0.000, 17:35:08.488
20, -412.00, -118.30, 177.08, -3247.52, 0.000, 0.000, 0.000, 17:35:08.488
21, -450.38, -134.55, 190.38, -3051.66, 0.000, 0.000, 0.000, 17:35:08.518
22, -459.19, -135.54, 212.56, -3089.08, 0.000, 0.000, 0.000, 17:35:08.518
23, -419.21, -114.08, 196.70, -3234.09, 0.000, 0.000, 0.000, 17:35:08.518
24, -397.27, -100.88, 179.56, -3150.15, 0.000, 0.000, 0.000, 17:35:08.518
25, -444.77, -128.40, 203.36, -3061.60, 0.000, 0.000, 0.000, 17:35:08.519
26, -435.98, -122.82, 216.70, -3061.89, 0.000, 0.000, 0.000, 17:35:08.519
27, -384.97, -100.41, 213.77, -3165.04, 0.000, 0.000, 0.000, 17:35:08.520
28, -389.36, -109.97, 198.54, -3201.15, 0.000, 0.000, 0.000, 17:35:08.520
29, -439.42, -117.68, 221.91, -3244.21, 0.000, 0.000, 0.000, 17:35:08.533
30, -406.94, -87.47, 205.23, -3069.60, 0.000, 0.000, 0.000, 17:35:08.533
31, -358.43, -73.61, 200.03, -3202.55, 0.000, 0.000, 0.000, 17:35:08.548
32, -352.63, -69.64, 197.02, -3194.94, 0.000, 0.000, 0.000, 17:35:08.548
33, -404.86, -98.62, 214.57, -3058.93, 0.000, 0.000, 0.000, 17:35:08.563
34, -396.34, -83.07, 210.00, -3085.86, 0.000, 0.000, 0.000, 17:35:08.563
35, -350.81, -59.59, 191.60, -3221.61, 0.000, 0.000, 0.000, 17:35:08.563
36, -340.07, -58.51, 181.73, -3154.24, 0.000, 0.000, 0.000, 17:35:08.563
37, -398.64, -92.39, 198.48, -3053.66, 0.000, 0.000, 0.000, 17:35:08.578
38, -421.70, -91.44, 218.61, -3152.53, 0.000, 0.000, 0.000, 17:35:08.578
39, -375.98, -75.94, 199.71, -3206.06, 0.000, 0.000, 0.000, 17:35:08.592
40, -377.31, -81.34, 186.46, -3169.62, 0.000, 0.000, 0.000, 17:35:08.592
41, -437.51, -119.37, 198.56, -3095.42, 0.000, 0.000, 0.000, 17:35:08.593
42, -451.88, -125.35, 215.04, -3083.97, 0.000, 0.000, 0.000, 17:35:08.593
43, -423.52, -116.86, 197.04, -3218.02, 0.000, 0.000, 0.000, 17:35:08.608
44, -439.15, -134.04, 180.15, -3261.11, 0.000, 0.000, 0.000, 17:35:08.608
45, -479.21, -147.63, 200.11, -3053.27, 0.000, 0.000, 0.000, 17:35:08.623
46, -480.80, -153.73, 219.73, -3062.71, 0.000, 0.000, 0.000, 17:35:08.623
47, -447.88, -146.34, 191.69, -3222.40, 0.000, 0.000, 0.000, 17:35:08.623
48, -442.20, -142.95, 175.19, -3214.22, 0.000, 0.000, 0.000, 17:35:08.623
49, -498.73, -164.16, 198.39, -3093.29, 0.000, 0.000, 0.000, 17:35:08.638
50, -511.94, -180.54, 228.77, -3155.03, 0.000, 0.000, 0.000, 17:35:08.638
51, -453.59, -151.02, 190.09, -3184.54, 0.000, 0.000, 0.000, 17:35:08.652
52, -447.42, -149.04, 167.81, -3167.57, 0.000, 0.000, 0.000, 17:35:08.653
53, -500.93, -177.22, 183.74, -3124.30, 0.000, 0.000, 0.000, 17:35:08.653
54, -503.44, -176.46, 207.89, -3086.40, 0.000, 0.000, 0.000, 17:35:08.653
55, -451.09, -151.01, 208.70, -3210.22, 0.000, 0.000, 0.000, 17:35:08.668
56, -454.64, -154.88, 184.23, -3244.98, 0.000, 0.000, 0.000, 17:35:08.668
57, -496.36, -175.50, 187.37, -3113.37, 0.000, 0.000, 0.000, 17:35:08.683
58, -500.72, -179.05, 215.30, -3132.46, 0.000, 0.000, 0.000, 17:35:08.683
59, -454.63, -160.61, 201.33, -3245.13, 0.000, 0.000, 0.000, 17:35:08.683
60, -440.90, -149.09, 185.44, -3214.04, 0.000, 0.000, 0.000, 17:35:08.683
61, -487.51, -171.74, 194.71, -3077.55, 0.000, 0.000, 0.000, 17:35:08.698
62, -508.84, -179.80, 210.28, -3182.28, 0.000, 0.000, 0.000, 17:35:08.698
63, -449.93, -149.88, 196.59, -3186.14, 0.000, 0.000, 0.000, 17:35:08.712
64, -441.45, -151.65, 170.96, -3182.60, 0.000, 0.000, 0.000, 17:35:08.713
65, -490.59, -174.49, 198.05, -3098.88, 0.000, 0.000, 0.000, 17:35:08.713
66, -489.53, -165.19, 205.71, -3076.45, 0.000, 0.000, 0.000, 17:35:08.713
67, -448.18, -151.41, 193.59, -3211.02, 0.000, 0.000, 0.000, 17:35:08.728
68, -445.61, -150.97, 188.33, -3238.27, 0.000, 0.000, 0.000, 17:35:08.728
69, -487.17, -170.39, 187.83, -3054.89, 0.000, 0.000, 0.000, 17:35:08.742
70, -488.72, -164.53, 207.97, -3085.49, 0.000, 0.000, 0.000, 17:35:08.743
71, -440.89, -138.43, 199.55, -3194.27, 0.000, 0.000, 0.000, 17:35:08.743
72, -427.35, -136.76, 174.69, -3164.10, 0.000, 0.000, 0.000, 17:35:08.743
73, -479.07, -160.25, 188.14, -3109.56, 0.000, 0.000, 0.000, 17:35:08.758
74, -495.92, -161.37, 216.90, -3148.83, 0.000, 0.000, 0.000, 17:35:08.758
75, -437.51, -136.47, 202.81, -3186.72, 0.000, 0.000, 0.000, 17:35:08.772
76, -435.28, -136.08, 184.95, -3184.90, 0.000, 0.000, 0.000, 17:35:08.773
77, -484.73, -159.46, 205.65, -3125.07, 0.000, 0.000, 0.000, 17:35:08.773
78, -492.63, -165.24, 206.87, -3074.08, 0.000, 0.000, 0.000, 17:35:08.773
79, -441.62, -151.06, 208.93, -3160.77, 0.000, 0.000, 0.000, 17:35:08.788
80, -450.57, -150.90, 186.16, -3215.76, 0.000, 0.000, 0.000, 17:35:08.788
81, -479.14, -161.71, 179.72, -3131.55, 0.000, 0.000, 0.000, 17:35:08.803
82, -486.96, -160.55, 200.79, -3124.03, 0.000, 0.000, 0.000, 17:35:08.803
83, -441.89, -139.91, 193.23, -3231.27, 0.000, 0.000, 0.000, 17:35:08.803
84, -430.12, -134.18, 165.92, -3210.76, 0.000, 0.000, 0.000, 17:35:08.803
85, -478.30, -157.87, 181.87, -3127.41, 0.000, 0.000, 0.000, 17:35:08.833
86, -490.42, -152.56, 219.61, -3173.30, 0.000, 0.000, 0.000, 17:35:08.833
87, -443.40, -138.95, 189.21, -3204.36, 0.000, 0.000, 0.000, 17:35:08.833
88, -442.08, -145.52, 181.14, -3228.13, 0.000, 0.000, 0.000, 17:35:08.833
89, -484.96, -164.92, 177.83, -3097.87, 0.000, 0.000, 0.000, 17:35:08.834
90, -493.14, -170.56, 203.33, -3090.72, 0.000, 0.000, 0.000, 17:35:08.834
91, -443.13, -145.68, 194.46, -3195.24, 0.000, 0.000, 0.000, 17:35:08.848
92, -439.34, -143.32, 193.07, -3304.60, 0.000, 0.000, 0.000, 17:35:08.848
93, -479.19, -163.14, 185.06, -3108.28, 0.000, 0.000, 0.000, 17:35:08.862
94, -488.65, -165.86, 206.23, -3120.33, 0.000, 0.000, 0.000, 17:35:08.863
95, -437.37, -137.37, 184.99, -3213.05, 0.000, 0.000, 0.000, 17:35:08.863
96, -419.08, -127.22, 169.79, -3180.55, 0.000, 0.000, 0.000, 17:35:08.863
97, -464.19, -145.54, 183.76, -3110.65, 0.000, 0.000, 0.000, 17:35:08.878
98, -482.55, -157.35, 209.32, -3157.28, 0.000, 0.000, 0.000, 17:35:08.878
99, -429.53, -127.60, 190.21, -3187.51, 0.000, 0.000, 0.000, 17:35:08.892
100, -418.22, -128.85, 164.89, -3198.44, 0.000, 0.000, 0.000, 17:35:08.893
101, -472.17, -150.45, 189.69, -3139.75, 0.000, 0.000, 0.000, 17:35:08.893
102, -471.26, -144.66, 211.59, -3075.56, 0.000, 0.000, 0.000, 17:35:08.893
103, -426.39, -126.73, 198.94, -3192.83, 0.000, 0.000, 0.000, 17:35:08.908
104, -425.14, -126.29, 184.07, -3256.77, 0.000, 0.000, 0.000, 17:35:08.908
105, -466.36, -146.76, 196.46, -3096.59, 0.000, 0.000, 0.000, 17:35:08.923
106, -479.24, -153.55, 208.57, -3048.17, 0.000, 0.000, 0.000, 17:35:08.923
107, -429.87, -125.09, 199.06, -3219.10, 0.000, 0.000, 0.000, 17:35:08.923
108, -418.23, -126.97, 163.61, -3183.47, 0.000, 0.000, 0.000, 17:35:08.923
109, -466.56, -150.87, 193.34, -3107.89, 0.000, 0.000, 0.000, 17:35:08.938
110, -487.36, -157.38, 202.46, -3153.05, 0.000, 0.000, 0.000, 17:35:08.938
111, -419.07, -120.18, 199.79, -3167.93, 0.000, 0.000, 0.000, 17:35:08.953
112, -420.61, -123.86, 180.13, -3203.44, 0.000, 0.000, 0.000, 17:35:08.953
113, -463.27, -144.10, 203.27, -3123.25, 0.000, 0.000, 0.000, 17:35:08.954
114, -469.63, -146.85, 214.04, -3101.13, 0.000, 0.000, 0.000, 17:35:08.954
115, -432.90, -129.64, 191.23, -3243.65, 0.000, 0.000, 0.000, 17:35:08.968
116, -420.12, -129.07, 183.38, -3273.10, 0.000, 0.000, 0.000, 17:35:08.968
117, -459.91, -147.81, 197.12, -3095.98, 0.000, 0.000, 0.000, 17:35:08.983
118, -476.72, -152.44, 205.63, -3110.65, 0.000, 0.000, 0.000, 17:35:08.983
119, -426.85, -123.96, 192.64, -3243.28, 0.000, 0.000, 0.000, 17:35:08.983
120, -408.98, -111.68, 182.41, -3204.40, 0.000, 0.000, 0.000, 17:35:08.983
121, -458.75, -137.13, 194.65, -3094.07, 0.000, 0.000, 0.000, 17:35:08.998
122, -474.42, -145.08, 216.51, -3116.21, 0.000, 0.000, 0.000, 17:35:08.998
123, -421.12, -116.88, 196.19, -3148.85, 0.000, 0.000, 0.000, 17:35:09.013
124, -400.48, -106.53, 180.25, -3172.43, 0.000, 0.000, 0.000, 17:35:09.013
125, -461.42, -146.73, 203.62, -3119.93, 0.000, 0.000, 0.000, 17:35:09.013
126, -467.36, -140.98, 221.95, -3072.33, 0.000, 0.000, 0.000, 17:35:09.013
127, -421.39, -121.14, 205.01, -3188.18, 0.000, 0.000, 0.000, 17:35:09.028
128, -423.11, -124.33, 194.13, -3256.69, 0.000, 0.000, 0.000, 17:35:09.028
129, -458.11, -141.20, 184.16, -3066.70, 0.000, 0.000, 0.000, 17:35:09.042
130, -472.10, -146.30, 217.51, -3093.57, 0.000, 0.000, 0.000, 17:35:09.042
131, -429.61, -124.56, 198.77, -3181.30, 0.000, 0.000, 0.000, 17:35:09.043
132, -407.08, -123.01, 178.53, -3166.90, 0.000, 0.000, 0.000, 17:35:09.043
133, -456.13, -146.73, 190.64, -3085.62, 0.000, 0.000, 0.000, 17:35:09.058
134, -474.04, -148.71, 223.60, -3140.84, 0.000, 0.000, 0.000, 17:35:09.058
135, -418.91, -118.73, 197.76, -3195.25, 0.000, 0.000, 0.000, 17:35:09.072
136, -405.48, -119.92, 181.18, -3236.74, 0.000, 0.000, 0.000, 17:35:09.073
137, -464.45, -140.60, 196.22, -3145.90, 0.000, 0.000, 0.000, 17:35:09.073
138, -474.07, -140.71, 207.87, -3098.10, 0.000, 0.000, 0.000, 17:35:09.073
139, -427.66, -124.47, 198.43, -3229.67, 0.000, 0.000, 0.000, 17:35:09.088
140, -424.81, -128.00, 178.68, -3232.37, 0.000, 0.000, 0.000, 17:35:09.088
141, -457.06, -141.37, 192.02, -3090.29, 0.000, 0.000, 0.000, 17:35:09.103
142, -468.85, -139.29, 219.72, -3070.36, 0.000, 0.000, 0.000, 17:35:09.103
143, -420.17, -118.46, 202.67, -3199.70, 0.000, 0.000, 0.000, 17:35:09.103
144, -406.10, -120.97, 179.19, -3180.09, 0.000, 0.000, 0.000, 17:35:09.103
145, -444.32, -131.39, 199.83, -3058.95, 0.000, 0.000, 0.000, 17:35:09.118
146, -465.74, -143.17, 224.10, -3119.51, 0.000, 0.000, 0.000, 17:35:09.118
147, -417.14, -116.31, 198.34, -3185.08, 0.000, 0.000, 0.000, 17:35:09.132
148, -409.91, -122.13, 174.78, -3203.50, 0.000, 0.000, 0.000, 17:35:09.133
149, -456.81, -143.42, 187.44, -3110.18, 0.000, 0.000, 0.000, 17:35:09.133
150, -462.53, -139.47, 212.82, -3051.03, 0.000, 0.000, 0.000, 17:35:09.133
151, -417.62, -116.97, 191.19, -3182.80, 0.000, 0.000, 0.000, 17:35:09.163
152, -414.86, -121.39, 181.10, -3260.86, 0.000, 0.000, 0.000, 17:35:09.163
153, -453.32, -139.42, 190.21, -3084.56, 0.000, 0.000, 0.000, 17:35:09.163
154, -468.14, -144.85, 201.49, -3073.05, 0.000, 0.000, 0.000, 17:35:09.163
155, -421.85, -121.83, 197.01, -3176.88, 0.000, 0.000, 0.000, 17:35:09.164
156, -412.65, -118.46, 175.51, -3202.60, 0.000, 0.000, 0.000, 17:35:09.164
157, -457.57, -143.12, 190.84, -3099.57, 0.000, 0.000, 0.000, 17:35:09.178
158, -480.90, -151.95, 219.38, -3157.34, 0.000, 0.000, 0.000, 17:35:09.178
159, -419.90, -124.20, 189.14, -3140.87, 0.000, 0.000, 0.000, 17:35:09.193
160, -412.62, -123.49, 167.00, -3177.45, 0.000, 0.000, 0.000, 17:35:09.193
161, -455.91, -141.48, 180.47, -3099.60, 0.000, 0.000, 0.000, 17:35:09.193
162, -463.50, -144.51, 199.23, -3035.58, 0.000, 0.000, 0.000, 17:35:09.193
163, -419.02, -116.98, 189.58, -3163.11, 0.000, 0.000, 0.000, 17:35:09.208
164, -414.23, -118.54, 185.33, -3233.71, 0.000, 0.000, 0.000, 17:35:09.208
165, -460.21, -144.51, 190.47, -3044.78, 0.000, 0.000, 0.000, 17:35:09.223
166, -472.14, -141.60, 211.91, -3036.54, 0.000, 0.000, 0.000, 17:35:09.223
167, -423.25, -118.72, 194.19, -3170.34, 0.000, 0.000, 0.000, 17:35:09.223
168, -411.11, -121.22, 174.21, -3161.11, 0.000, 0.000, 0.000, 17:35:09.223
169, -457.78, -141.64, 189.14, -3113.67, 0.000, 0.000, 0.000, 17:35:09.238
170, -479.48, -147.39, 219.50, -3139.74, 0.000, 0.000, 0.000, 17:35:09.238
171, -429.57, -122.35, 191.79, -3164.84, 0.000, 0.000, 0.000, 17:35:09.253
172, -417.56, -120.65, 174.97, -3237.86, 0.000, 0.000, 0.000, 17:35:09.253
173, -457.73, -134.94, 199.60, -3097.58, 0.000, 0.000, 0.000, 17:35:09.253
174, -465.23, -137.82, 211.18, -3079.17, 0.000, 0.000, 0.000, 17:35:09.253
175, -415.28, -116.50, 199.76, -3212.12, 0.000, 0.000, 0.000, 17:35:09.268
176, -407.58, -115.15, 188.29, -3273.87, 0.000, 0.000, 0.000, 17:35:09.268
177, -452.52, -132.78, 194.67, -3091.55, 0.000, 0.000, 0.000, 17:35:09.282
178, -482.93, -152.78, 207.93, -3088.17, 0.000, 0.000, 0.000, 17:35:09.283
179, -419.54, -120.50, 208.01, -3209.31, 0.000, 0.000, 0.000, 17:35:09.283
180, -404.50, -113.47, 172.52, -3202.90, 0.000, 0.000, 0.000, 17:35:09.283
181, -446.02, -131.34, 196.57, -3123.50, 0.000, 0.000, 0.000, 17:35:09.298
182, -467.34, -136.55, 216.97, -3152.02, 0.000, 0.000, 0.000, 17:35:09.298
183, -414.94, -118.64, 193.90, -3156.22, 0.000, 0.000, 0.000, 17:35:09.313
184, -403.12, -123.26, 168.96, -3190.06, 0.000, 0.000, 0.000, 17:35:09.313
185, -457.35, -144.15, 186.54, -3110.60, 0.000, 0.000, 0.000, 17:35:09.313
186, -463.56, -134.55, 216.28, -3069.92, 0.000, 0.000, 0.000, 17:35:09.313
187, -424.19, -125.45, 187.50, -3180.63, 0.000, 0.000, 0.000, 17:35:09.328
188, -411.25, -124.00, 179.65, -3226.69, 0.000, 0.000, 0.000, 17:35:09.328
189, -458.96, -139.65, 177.19, -3057.58, 0.000, 0.000, 0.000, 17:35:09.343
190, -469.54, -145.04, 196.13, -3035.04, 0.000, 0.000, 0.000, 17:35:09.343
191, -430.04, -127.74, 183.96, -3218.47, 0.000, 0.000, 0.000, 17:35:09.343
192, -420.21, -123.50, 171.56, -3185.42, 0.000, 0.000, 0.000, 17:35:09.343
193, -463.37, -148.77, 177.80, -3093.03, 0.000, 0.000, 0.000, 17:35:09.358
194, -488.27, -153.95, 203.58, -3164.59, 0.000, 0.000, 0.000, 17:35:09.358
195, -427.05, -121.69, 193.75, -3199.38, 0.000, 0.000, 0.000, 17:35:09.373
196, -412.26, -119.94, 177.12, -3237.36, 0.000, 0.000, 0.000, 17:35:09.373
197, -459.99, -144.00, 195.68, -3155.23, 0.000, 0.000, 0.000, 17:35:09.373
198, -473.05, -142.56, 221.05, -3080.51, 0.000, 0.000, 0.000, 17:35:09.373
199, -433.00, -127.75, 197.57, -3215.36, 0.000, 0.000, 0.000, 17:35:09.388
200, -430.11, -133.34, 184.96, -3306.83, 0.000, 0.000, 0.000, 17:35:09.388
0, -459.53, -141.24, 192.28, -3096.84, 0.000, 0.000, 0.000, 17:35:09.388
1, -467.75, -142.96, 222.79, -3046.46, 0.000, 0.000, 0.000, 17:35:09.403
2, -428.65, -118.86, 203.92, -3205.35, 0.000, 0.000, 0.000, 17:35:09.403
3, -405.05, -121.21, 180.28, -3197.01, 0.000, 0.000, 0.000, 17:35:09.418
4, -453.50, -135.56, 191.23, -3094.76, 0.000, 0.000, 0.000, 17:35:09.418
5, -471.92, -138.43, 218.95, -3105.37, 0.000, 0.000, 0.000, 17:35:09.418
6, -420.80, -110.68, 197.30, -3164.59, 0.000, 0.000, 0.000, 17:35:09.418
7, -408.98, -111.74, 172.85, -3220.90, 0.000, 0.000, 0.000, 17:35:09.433
8, -454.47, -139.59, 192.07, -3148.26, 0.000, 0.000, 0.000, 17:35:09.433
9, -471.22, -146.26, 202.45, -3081.29, 0.000, 0.000, 0.000, 17:35:09.448
10, -423.61, -123.63, 191.07, -3184.33, 0.000, 0.000, 0.000, 17:35:09.448
11, -409.57, -115.18, 181.82, -3247.24, 0.000, 0.000, 0.000, 17:35:09.448
12, -460.71, -139.99, 196.48, -3129.13, 0.000, 0.000, 0.000, 17:35:09.448
13, -478.13, -153.86, 202.64, -3085.03, 0.000, 0.000, 0.000, 17:35:09.477
14, -435.94, -130.96, 205.02, -3233.57, 0.000, 0.000, 0.000, 17:35:09.478
15, -408.63, -116.81, 189.26, -3246.34, 0.000, 0.000, 0.000, 17:35:09.478
16, -459.62, -140.73, 185.19, -3150.11, 0.000, 0.000, 0.000, 17:35:09.478
17, -470.75, -145.39, 220.51, -3092.21, 0.000, 0.000, 0.000, 17:35:09.479
18, -433.71, -131.24, 200.89, -3212.20, 0.000, 0.000, 0.000, 17:35:09.479
19, -409.59, -116.65, 183.45, -3229.68, 0.000, 0.000, 0.000, 17:35:09.493
20, -478.53, -149.43, 194.61, -3267.34, 0.000, 0.000, 0.000, 17:35:09.493
21, -474.63, -143.18, 209.36, -3102.39, 0.000, 0.000, 0.000, 17:35:09.508
22, -420.41, -113.69, 208.39, -3206.60, 0.000, 0.000, 0.000, 17:35:09.508
23, -405.26, -112.54, 196.04, -3270.66, 0.000, 0.000, 0.000, 17:35:09.508
24, -449.99, -140.35, 185.47, -3119.48, 0.000, 0.000, 0.000, 17:35:09.508
25, -470.30, -155.33, 199.66, -3084.08, 0.000, 0.000, 0.000, 17:35:09.523
26, -432.26, -125.65, 210.63, -3234.03, 0.000, 0.000, 0.000, 17:35:09.523
27, -398.80, -104.88, 180.03, -3167.49, 0.000, 0.000, 0.000, 17:35:09.538
28, -455.96, -137.68, 186.25, -3072.80, 0.000, 0.000, 0.000, 17:35:09.538
29, -473.55, -143.11, 216.29, -3078.41, 0.000, 0.000, 0.000, 17:35:09.538
30, -415.02, -114.57, 209.30, -3148.99, 0.000, 0.000, 0.000, 17:35:09.538
31, -402.99, -113.81, 188.01, -3180.79, 0.000, 0.000, 0.000, 17:35:09.553
32, -452.89, -136.39, 206.35, -3125.34, 0.000, 0.000, 0.000, 17:35:09.553
33, -470.37, -146.72, 211.21, -3052.78, 0.000, 0.000, 0.000, 17:35:09.567
34, -424.49, -124.47, 192.23, -3146.15, 0.000, 0.000, 0.000, 17:35:09.568
35, -405.55, -123.35, 185.42, -3191.06, 0.000, 0.000, 0.000, 17:35:09.568
36, -445.50, -134.80, 192.21, -3077.34, 0.000, 0.000, 0.000, 17:35:09.568
37, -468.00, -144.25, 215.56, -3086.57, 0.000, 0.000, 0.000, 17:35:09.583
38, -425.22, -120.57, 211.47, -3209.90, 0.000, 0.000, 0.000, 17:35:09.583
39, -400.65, -114.35, 183.23, -3153.25, 0.000, 0.000, 0.000, 17:35:09.598
40, -442.78, -130.74, 189.64, -3097.03, 0.000, 0.000, 0.000, 17:35:09.598
41, -471.49, -141.33, 207.23, -3084.61, 0.000, 0.000, 0.000, 17:35:09.598
42, -419.48, -117.79, 185.73, -3164.09, 0.000, 0.000, 0.000, 17:35:09.598
43, -398.29, -109.59, 174.82, -3217.67, 0.000, 0.000, 0.000, 17:35:09.613
44, -454.06, -131.15, 199.63, -3141.82, 0.000, 0.000, 0.000, 17:35:09.613
45, -465.77, -141.08, 215.27, -3043.61, 0.000, 0.000, 0.000, 17:35:09.628
46, -414.09, -117.89, 208.67, -3164.75, 0.000, 0.000, 0.000, 17:35:09.628
47, -404.77, -113.53, 187.34, -3218.47, 0.000, 0.000, 0.000, 17:35:09.628
48, -454.00, -141.56, 183.60, -3097.21, 0.000, 0.000, 0.000, 17:35:09.628
49, -467.80, -145.41, 217.14, -3082.11, 0.000, 0.000, 0.000, 17:35:09.643
50, -428.15, -122.08, 212.90, -3217.82, 0.000, 0.000, 0.000, 17:35:09.643
51, -403.87, -116.29, 179.29, -3179.73, 0.000, 0.000, 0.000, 17:35:09.658
52, -447.35, -133.98, 185.52, -3090.01, 0.000, 0.000, 0.000, 17:35:09.659
53, -466.61, -139.34, 214.45, -3068.56, 0.000, 0.000, 0.000, 17:35:09.659
54, -415.27, -114.14, 209.83, -3175.69, 0.000, 0.000, 0.000, 17:35:09.659
55, -405.55, -115.71, 174.35, -3242.98, 0.000, 0.000, 0.000, 17:35:09.674
56, -455.69, -142.64, 205.30, -3161.24, 0.000, 0.000, 0.000, 17:35:09.674
57, -470.98, -142.92, 212.43, -3055.18, 0.000, 0.000, 0.000, 17:35:09.687
58, -421.61, -117.15, 196.90, -3186.45, 0.000, 0.000, 0.000, 17:35:09.688
59, -408.81, -118.98, 170.78, -3246.03, 0.000, 0.000, 0.000, 17:35:09.688
60, -453.02, -141.84, 182.88, -3112.16, 0.000, 0.000, 0.000, 17:35:09.688
61, -471.07, -151.67, 212.34, -3064.11, 0.000, 0.000, 0.000, 17:35:09.703
62, -422.10, -115.39, 209.79, -3231.40, 0.000, 0.000, 0.000, 17:35:09.703
63, -403.48, -117.54, 182.29, -3216.03, 0.000, 0.000, 0.000, 17:35:09.718
64, -452.58, -140.59, 190.06, -3114.66, 0.000, 0.000, 0.000, 17:35:09.718
65, -478.55, -151.24, 210.91, -3119.24, 0.000, 0.000, 0.000, 17:35:09.718
66, -434.24, -130.55, 202.98, -3196.80, 0.000, 0.000, 0.000, 17:35:09.718
67, -409.95, -120.85, 183.75, -3223.30, 0.000, 0.000, 0.000, 17:35:09.733
68, -456.42, -142.65, 202.43, -3184.68, 0.000, 0.000, 0.000, 17:35:09.733
69, -469.59, -143.46, 220.81, -3062.78, 0.000, 0.000, 0.000, 17:35:09.748
70, -426.48, -125.05, 207.93, -3185.29, 0.000, 0.000, 0.000, 17:35:09.748
71, -407.71, -111.25, 181.64, -3237.59, 0.000, 0.000, 0.000, 17:35:09.748
72, -446.36, -141.29, 183.82, -3099.60, 0.000, 0.000, 0.000, 17:35:09.748
73, -464.27, -138.07, 210.99, -3081.01, 0.000, 0.000, 0.000, 17:35:09.763
74, -426.31, -122.32, 204.26, -3235.88, 0.000, 0.000, 0.000, 17:35:09.763
75, -404.33, -115.73, 176.88, -3208.46, 0.000, 0.000, 0.000, 17:35:09.793
76, -458.91, -140.27, 179.38, -3134.27, 0.000, 0.000, 0.000, 17:35:09.793
77, -465.93, -139.52, 216.96, -3111.24, 0.000, 0.000, 0.000, 17:35:09.793
78, -420.83, -113.10, 198.58, -3185.60, 0.000, 0.000, 0.000, 17:35:09.793
79, -401.35, -105.19, 189.32, -3220.96, 0.000, 0.000, 0.000, 17:35:09.794
80, -446.00, -134.27, 194.96, -3115.56, 0.000, 0.000, 0.000, 17:35:09.794
81, -467.12, -140.52, 225.92, -3072.27, 0.000, 0.000, 0.000, 17:35:09.795
82, -422.89, -124.86, 202.84, -3175.43, 0.000, 0.000, 0.000, 17:35:09.795
83, -411.48, -119.60, 207.38, -3377.93, 0.000, 0.000, 0.000, 17:35:09.808
84, -438.75, -136.33, 191.40, -3087.07, 0.000, 0.000, 0.000, 17:35:09.808
85, -477.45, -151.48, 213.22, -3081.13, 0.000, 0.000, 0.000, 17:35:09.823
86, -426.71, -122.68, 209.17, -3215.32, 0.000, 0.000, 0.000, 17:35:09.823
87, -406.42, -120.55, 183.91, -3197.08, 0.000, 0.000, 0.000, 17:35:09.837
88, -451.19, -134.51, 193.90, -3112.89, 0.000, 0.000, 0.000, 17:35:09.837
89, -469.89, -142.58, 226.79, -3078.52, 0.000, 0.000, 0.000, 17:35:09.838
90, -422.06, -114.84, 202.81, -3154.25, 0.000, 0.000, 0.000, 17:35:09.838
91, -393.10, -105.73, 180.26, -3172.87, 0.000, 0.000, 0.000, 17:35:09.853
92, -445.02, -137.02, 195.04, -3166.80, 0.000, 0.000, 0.000, 17:35:09.853
93, -462.95, -143.08, 213.91, -3068.85, 0.000, 0.000, 0.000, 17:35:09.868
94, -424.49, -125.47, 198.94, -3175.01, 0.000, 0.000, 0.000, 17:35:09.868
95, -407.88, -118.28, 181.40, -3243.33, 0.000, 0.000, 0.000, 17:35:09.868
96, -452.69, -141.80, 173.23, -3095.86, 0.000, 0.000, 0.000, 17:35:09.868
97, -471.79, -144.50, 207.31, -3080.25, 0.000, 0.000, 0.000, 17:35:09.883
98, -439.13, -123.26, 207.49, -3248.92, 0.000, 0.000, 0.000, 17:35:09.883
99, -412.61, -116.48, 184.16, -3235.12, 0.000, 0.000, 0.000, 17:35:09.898
100, -454.37, -145.04, 191.50, -3110.75, 0.000, 0.000, 0.000, 17:35:09.898
101, -467.44, -137.79, 217.12, -3086.17, 0.000, 0.000, 0.000, 17:35:09.898
102, -428.37, -117.79, 206.86, -3158.54, 0.000, 0.000, 0.000, 17:35:09.898
103, -408.78, -116.30, 183.68, -3200.81, 0.000, 0.000, 0.000, 17:35:09.913
104, -449.47, -134.90, 205.05, -3158.29, 0.000, 0.000, 0.000, 17:35:09.913
105, -476.17, -146.74, 211.68, -3072.89, 0.000, 0.000, 0.000, 17:35:09.927
106, -421.18, -121.32, 210.25, -3146.05, 0.000, 0.000, 0.000, 17:35:09.928
107, -396.34, -108.63, 184.31, -3209.70, 0.000, 0.000, 0.000, 17:35:09.928
108, -438.94, -135.18, 189.91, -3095.18, 0.000, 0.000, 0.000, 17:35:09.928
109, -465.55, -145.37, 194.40, -3093.25, 0.000, 0.000, 0.000, 17:35:09.943
110, -425.62, -117.63, 205.30, -3243.46, 0.000, 0.000, 0.000, 17:35:09.943
111, -406.32, -114.78, 170.89, -3206.89, 0.000, 0.000, 0.000, 17:35:09.958
112, -454.95, -140.41, 178.91, -3094.90, 0.000, 0.000, 0.000, 17:35:09.958
113, -467.60, -143.94, 199.92, -3057.29, 0.000, 0.000, 0.000, 17:35:09.958
114, -430.23, -129.44, 197.75, -3148.84, 0.000, 0.000, 0.000, 17:35:09.958
115, -403.03, -110.51, 182.78, -3209.22, 0.000, 0.000, 0.000, 17:35:09.973
116, -461.34, -147.82, 185.79, -3166.00, 0.000, 0.000, 0.000, 17:35:09.973
117, -473.55, -154.14, 206.87, -3087.96, 0.000, 0.000, 0.000, 17:35:09.988
118, -420.63, -119.38, 205.72, -3165.75, 0.000, 0.000, 0.000, 17:35:09.988
119, -396.71, -107.05, 186.89, -3236.28, 0.000, 0.000, 0.000, 17:35:09.988
120, -441.09, -136.88, 194.96, -3135.77, 0.000, 0.000, 0.000, 17:35:09.988
121, -468.21, -143.93, 220.17, -3078.81, 0.000, 0.000, 0.000, 17:35:10.003
122, -434.11, -130.06, 214.11, -3193.02, 0.000, 0.000, 0.000, 17:35:10.003
123, -401.59, -117.46, 184.81, -3203.43, 0.000, 0.000, 0.000, 17:35:10.018
124, -449.52, -142.49, 194.77, -3098.24, 0.000, 0.000, 0.000, 17:35:10.018
125, -474.03, -147.55, 219.78, -3083.10, 0.000, 0.000, 0.000, 17:35:10.018
126, -423.27, -117.24, 207.92, -3128.98, 0.000, 0.000, 0.000, 17:35:10.018
127, -410.70, -120.50, 175.64, -3225.35, 0.000, 0.000, 0.000, 17:35:10.033
128, -454.56, -144.77, 189.31, -3161.55, 0.000, 0.000, 0.000, 17:35:10.033
129, -470.91, -149.25, 210.59, -3050.12, 0.000, 0.000, 0.000, 17:35:10.047
130, -428.99, -124.55, 202.10, -3177.89, 0.000, 0.000, 0.000, 17:35:10.048
131, -408.82, -116.72, 184.72, -3259.12, 0.000, 0.000, 0.000, 17:35:10.048
132, -448.91, -139.00, 192.16, -3107.24, 0.000, 0.000, 0.000, 17:35:10.048
133, -478.61, -147.86, 218.79, -3075.51, 0.000, 0.000, 0.000, 17:35:10.063
134, -435.78, -127.00, 220.77, -3204.40, 0.000, 0.000, 0.000, 17:35:10.063
135, -405.61, -117.12, 188.09, -3216.61, 0.000, 0.000, 0.000, 17:35:10.077
136, -445.84, -139.66, 200.06, -3120.65, 0.000, 0.000, 0.000, 17:35:10.078
137, -472.96, -149.36, 212.99, -3086.36, 0.000, 0.000, 0.000, 17:35:10.078
138, -434.04, -129.39, 192.45, -3156.91, 0.000, 0.000, 0.000, 17:35:10.080
139, -402.78, -114.76, 182.75, -3208.95, 0.000, 0.000, 0.000, 17:35:10.093
140, -450.07, -129.25, 201.93, -3147.95, 0.000, 0.000, 0.000, 17:35:10.093
141, -476.70, -153.67, 206.17, -3056.83, 0.000, 0.000, 0.000, 17:35:10.122
142, -425.08, -124.39, 199.39, -3161.65, 0.000, 0.000, 0.000, 17:35:10.123
143, -407.40, -118.18, 165.29, -3219.21, 0.000, 0.000, 0.000, 17:35:10.123
144, -446.79, -137.11, 169.11, -3129.95, 0.000, 0.000, 0.000, 17:35:10.123
145, -471.64, -148.39, 203.39, -3081.10, 0.000, 0.000, 0.000, 17:35:10.124
146, -428.69, -123.87, 203.62, -3165.88, 0.000, 0.000, 0.000, 17:35:10.124
147, -404.30, -115.31, 184.99, -3233.09, 0.000, 0.000, 0.000, 17:35:10.124
148, -438.72, -135.55, 187.37, -3114.19, 0.000, 0.000, 0.000, 17:35:10.125
149, -475.51, -141.84, 239.00, -3235.39, 0.000, 0.000, 0.000, 17:35:10.138
150, -421.04, -126.91, 207.08, -3171.81, 0.000, 0.000, 0.000, 17:35:10.138
151, -396.38, -116.02, 190.01, -3187.25, 0.000, 0.000, 0.000, 17:35:10.153
152, -448.33, -143.56, 191.41, -3132.09, 0.000, 0.000, 0.000, 17:35:10.153
153, -467.89, -148.27, 216.25, -3079.17, 0.000, 0.000, 0.000, 17:35:10.170
154, -433.30, -129.13, 209.29, -3182.73, 0.000, 0.000, 0.000, 17:35:10.170
155, -400.38, -113.85, 185.22, -3210.95, 0.000, 0.000, 0.000, 17:35:10.171
156, -439.72, -136.29, 184.98, -3077.77, 0.000, 0.000, 0.000, 17:35:10.171
157, -466.88, -145.10, 220.80, -3056.70, 0.000, 0.000, 0.000, 17:35:10.183
158, -435.75, -123.33, 215.93, -3217.20, 0.000, 0.000, 0.000, 17:35:10.183
159, -406.90, -115.89, 179.17, -3221.77, 0.000, 0.000, 0.000, 17:35:10.198
160, -454.01, -140.57, 185.71, -3127.07, 0.000, 0.000, 0.000, 17:35:10.198
161, -466.73, -136.97, 218.46, -3091.48, 0.000, 0.000, 0.000, 17:35:10.198
162, -426.81, -122.08, 204.36, -3135.35, 0.000, 0.000, 0.000, 17:35:10.198
163, -405.08, -117.17, 178.69, -3210.31, 0.000, 0.000, 0.000, 17:35:10.213
164, -457.54, -141.21, 192.58, -3174.40, 0.000, 0.000, 0.000, 17:35:10.213
165, -474.65, -143.41, 206.99, -3071.25, 0.000, 0.000, 0.000, 17:35:10.228
166, -425.35, -123.73, 202.16, -3165.65, 0.000, 0.000, 0.000, 17:35:10.228
167, -401.99, -110.53, 185.92, -3222.62, 0.000, 0.000, 0.000, 17:35:10.228
168, -440.18, -133.07, 192.88, -3049.92, 0.000, 0.000, 0.000, 17:35:10.228
169, -467.34, -145.11, 210.05, -3032.34, 0.000, 0.000, 0.000, 17:35:10.243
170, -427.53, -118.53, 210.37, -3212.45, 0.000, 0.000, 0.000, 17:35:10.243
171, -398.01, -110.94, 175.11, -3183.84, 0.000, 0.000, 0.000, 17:35:10.257
172, -440.24, -123.11, 182.13, -3077.91, 0.000, 0.000, 0.000, 17:35:10.258
173, -471.23, -139.00, 207.92, -3069.42, 0.000, 0.000, 0.000, 17:35:10.258
174, -426.33, -118.71, 196.96, -3148.59, 0.000, 0.000, 0.000, 17:35:10.258
175, -405.93, -112.91, 178.81, -3220.30, 0.000, 0.000, 0.000, 17:35:10.273
176, -452.19, -138.50, 190.71, -3177.82, 0.000, 0.000, 0.000, 17:35:10.273
177, -472.06, -145.36, 208.59, -3079.69, 0.000, 0.000, 0.000, 17:35:10.288
178, -434.63, -127.18, 203.30, -3184.47, 0.000, 0.000, 0.000, 17:35:10.288
179, -404.63, -115.35, 191.26, -3243.71, 0.000, 0.000, 0.000, 17:35:10.288
180, -443.29, -128.09, 191.54, -3105.77, 0.000, 0.000, 0.000, 17:35:10.288
181, -474.44, -140.42, 214.22, -3096.97, 0.000, 0.000, 0.000, 17:35:10.303
182, -439.93, -131.55, 212.76, -3243.04, 0.000, 0.000, 0.000, 17:35:10.303
183, -405.40, -118.27, 180.06, -3192.66, 0.000, 0.000, 0.000, 17:35:10.318
184, -441.56, -135.14, 189.12, -3107.57, 0.000, 0.000, 0.000, 17:35:10.318
185, -470.93, -138.86, 214.41, -3095.78, 0.000, 0.000, 0.000, 17:35:10.318
186, -423.91, -117.46, 215.63, -3143.96, 0.000, 0.000, 0.000, 17:35:10.318
187, -403.74, -114.99, 183.02, -3232.39, 0.000, 0.000, 0.000, 17:35:10.333
188, -455.88, -142.49, 184.54, -3187.99, 0.000, 0.000, 0.000, 17:35:10.333
189, -468.48, -142.02, 210.80, -3053.77, 0.000, 0.000, 0.000, 17:35:10.348
190, -430.24, -123.51, 209.01, -3183.73, 0.000, 0.000, 0.000, 17:35:10.348
191, -409.86, -121.62, 184.24, -3252.45, 0.000, 0.000, 0.000, 17:35:10.348
192, -439.46, -133.83, 199.20, -3122.55, 0.000, 0.000, 0.000, 17:35:10.348
193, -471.66, -145.57, 219.12, -3098.65, 0.000, 0.000, 0.000, 17:35:10.378
194, -438.97, -127.94, 203.81, -3261.83, 0.000, 0.000, 0.000, 17:35:10.378
195, -401.57, -113.58, 185.98, -3211.57, 0.000, 0.000, 0.000, 17:35:10.378
196, -437.89, -133.68, 186.71, -3138.06, 0.000, 0.000, 0.000, 17:35:10.378
197, -477.11, -144.72, 209.77, -3111.07, 0.000, 0.000, 0.000, 17:35:10.379
198, -433.88, -119.62, 196.82, -3155.01, 0.000, 0.000, 0.000, 17:35:10.379
199, -409.39, -116.56, 176.71, -3230.22, 0.000, 0.000, 0.000, 17:35:10.393
200, -465.77, -146.25, 191.99, -3220.22, 0.000, 0.000, 0.000, 17:35:10.393
0, -476.27, -146.66, 203.86, -3082.12, 0.000, 0.000, 0.000, 17:35:10.393
1, -437.91, -129.35, 200.40, -3174.48, 0.000, 0.000, 0.000, 17:35:10.408
2, -418.46, -129.14, 177.83, -3292.22, 0.000, 0.000, 0.000, 17:35:10.408
3, -452.02, -144.61, 181.69, -3121.75, 0.000, 0.000, 0.000, 17:35:10.438
4, -477.19, -154.47, 201.35, -3074.41, 0.000, 0.000, 0.000, 17:35:10.438
5, -435.58, -133.57, 207.64, -3187.42, 0.000, 0.000, 0.000, 17:35:10.438
6, -408.26, -121.38, 182.69, -3185.62, 0.000, 0.000, 0.000, 17:35:10.438
7, -441.61, -138.21, 182.20, -3137.53, 0.000, 0.000, 0.000, 17:35:10.439
8, -477.18, -152.67, 209.20, -3051.27, 0.000, 0.000, 0.000, 17:35:10.439
9, -431.51, -124.94, 221.39, -3120.09, 0.000, 0.000, 0.000, 17:35:10.439
10, -402.81, -111.85, 177.84, -3191.97, 0.000, 0.000, 0.000, 17:35:10.439
11, -464.59, -143.92, 201.62, -3264.50, 0.000, 0.000, 0.000, 17:35:10.453
12, -472.47, -146.66, 205.19, -3014.86, 0.000, 0.000, 0.000, 17:35:10.453
13, -438.31, -126.22, 207.79, -3153.65, 0.000, 0.000, 0.000, 17:35:10.468
14, -409.00, -116.43, 171.34, -3234.32, 0.000, 0.000, 0.000, 17:35:10.468
15, -455.06, -143.65, 168.33, -3116.00, 0.000, 0.000, 0.000, 17:35:10.482
16, -470.74, -150.13, 203.85, -3048.73, 0.000, 0.000, 0.000, 17:35:10.483
17, -435.00, -124.19, 197.58, -3160.42, 0.000, 0.000, 0.000, 17:35:10.483
18, -405.35, -116.30, 169.96, -3202.90, 0.000, 0.000, 0.000, 17:35:10.483
19, -452.37, -145.11, 175.83, -3097.71, 0.000, 0.000, 0.000, 17:35:10.498
20, -481.09, -156.77, 203.34, -3098.22, 0.000, 0.000, 0.000, 17:35:10.498
21, -430.17, -123.81, 200.10, -3136.42, 0.000, 0.000, 0.000, 17:35:10.512
22, -407.34, -111.75, 179.16, -3209.28, 0.000, 0.000, 0.000, 17:35:10.513
23, -445.25, -136.47, 185.75, -3097.22, 0.000, 0.000, 0.000, 17:35:10.513
24, -465.06, -144.14, 206.79, -2995.10, 0.000, 0.000, 0.000, 17:35:10.513
25, -429.30, -126.25, 196.98, -3141.65, 0.000, 0.000, 0.000, 17:35:10.528
26, -415.10, -120.69, 188.10, -3256.71, 0.000, 0.000, 0.000, 17:35:10.528
27, -442.61, -135.38, 176.32, -3084.13, 0.000, 0.000, 0.000, 17:35:10.543
28, -468.69, -145.98, 199.14, -3049.72, 0.000, 0.000, 0.000, 17:35:10.544
29, -435.95, -122.12, 200.75, -3186.76, 0.000, 0.000, 0.000, 17:35:10.544
30, -398.22, -105.77, 185.47, -3163.28, 0.000, 0.000, 0.000, 17:35:10.544
31, -440.00, -130.17, 173.46, -3096.54, 0.000, 0.000, 0.000, 17:35:10.558
32, -475.23, -144.58, 210.75, -3124.12, 0.000, 0.000, 0.000, 17:35:10.558
33, -425.64, -121.15, 207.30, -3143.28, 0.000, 0.000, 0.000, 17:35:10.572
34, -405.67, -118.20, 171.77, -3217.65, 0.000, 0.000, 0.000, 17:35:10.573
35, -443.88, -130.47, 176.22, -3128.66, 0.000, 0.000, 0.000, 17:35:10.573
36, -464.75, -137.00, 210.02, -3028.67, 0.000, 0.000, 0.000, 17:35:10.573
37, -429.37, -117.24, 212.98, -3170.96, 0.000, 0.000, 0.000, 17:35:10.588
38, -412.26, -116.28, 180.81, -3290.70, 0.000, 0.000, 0.000, 17:35:10.588
39, -443.54, -134.94, 175.69, -3121.89, 0.000, 0.000, 0.000, 17:35:10.603
40, -481.12, -148.91, 208.03, -3086.55, 0.000, 0.000, 0.000, 17:35:10.603
41, -436.62, -121.69, 219.79, -3188.54, 0.000, 0.000, 0.000, 17:35:10.604
42, -408.58, -122.29, 185.68, -3238.85, 0.000, 0.000, 0.000, 17:35:10.604
43, -442.48, -137.01, 188.07, -3118.22, 0.000, 0.000, 0.000, 17:35:10.618
44, -481.13, -148.19, 205.22, -3129.26, 0.000, 0.000, 0.000, 17:35:10.618
45, -434.43, -129.13, 203.59, -3157.49, 0.000, 0.000, 0.000, 17:35:10.632
46, -404.14, -110.19, 177.12, -3238.28, 0.000, 0.000, 0.000, 17:35:10.632
47, -455.26, -141.85, 185.48, -3184.08, 0.000, 0.000, 0.000, 17:35:10.633
48, -479.25, -154.04, 198.42, -3069.53, 0.000, 0.000, 0.000, 17:35:10.633
49, -436.32, -124.47, 209.25, -3162.43, 0.000, 0.000, 0.000, 17:35:10.648
50, -414.92, -118.77, 193.94, -3307.53, 0.000, 0.000, 0.000, 17:35:10.648
51, -442.91, -128.71, 189.19, -3140.23, 0.000, 0.000, 0.000, 17:35:10.663
52, -478.19, -151.71, 209.69, -3058.89, 0.000, 0.000, 0.000, 17:35:10.663
53, -439.95, -125.16, 210.93, -3168.16, 0.000, 0.000, 0.000, 17:35:10.663
54, -401.75, -115.41, 191.83, -3201.26, 0.000, 0.000, 0.000, 17:35:10.663
55, -442.01, -136.00, 193.24, -3136.63, 0.000, 0.000, 0.000, 17:35:10.678
56, -477.09, -150.90, 214.26, -3118.11, 0.000, 0.000, 0.000, 17:35:10.678
57, -433.99, -126.89, 205.90, -3147.72, 0.000, 0.000, 0.000, 17:35:10.693
58, -393.96, -106.16, 187.99, -3214.37, 0.000, 0.000, 0.000, 17:35:10.693
59, -445.34, -133.82, 186.32, -3162.37, 0.000, 0.000, 0.000, 17:35:10.693
60, -473.89, -142.93, 205.71, -3058.24, 0.000, 0.000, 0.000, 17:35:10.693
61, -425.34, -111.16, 206.41, -3160.77, 0.000, 0.000, 0.000, 17:35:10.708
62, -407.54, -115.07, 180.13, -3282.01, 0.000, 0.000, 0.000, 17:35:10.708
63, -429.56, -123.73, 185.70, -3085.74, 0.000, 0.000, 0.000, 17:35:10.722
64, -466.65, -143.04, 209.41, -3051.51, 0.000, 0.000, 0.000, 17:35:10.723
65, -433.84, -128.83, 210.56, -3154.16, 0.000, 0.000, 0.000, 17:35:10.723
66, -397.22, -103.71, 198.75, -3193.01, 0.000, 0.000, 0.000, 17:35:10.723
67, -446.89, -136.20, 185.29, -3142.75, 0.000, 0.000, 0.000, 17:35:10.753
68, -480.67, -148.91, 222.45, -3125.10, 0.000, 0.000, 0.000, 17:35:10.753
69, -443.15, -129.10, 204.34, -3143.81, 0.000, 0.000, 0.000, 17:35:10.753
70, -407.09, -119.10, 178.39, -3205.44, 0.000, 0.000, 0.000, 17:35:10.753
71, -440.70, -135.70, 178.15, -3115.08, 0.000, 0.000, 0.000, 17:35:10.754
72, -471.35, -146.99, 215.28, -3038.31, 0.000, 0.000, 0.000, 17:35:10.754
73, -439.05, -130.85, 194.27, -3169.56, 0.000, 0.000, 0.000, 17:35:10.768
74, -419.39, -118.60, 192.91, -3336.39, 0.000, 0.000, 0.000, 17:35:10.768
75, -436.15, -129.34, 182.61, -3108.32, 0.000, 0.000, 0.000, 17:35:10.783
76, -466.82, -146.87, 206.15, -3058.94, 0.000, 0.000, 0.000, 17:35:10.783
77, -438.82, -123.23, 206.18, -3178.02, 0.000, 0.000, 0.000, 17:35:10.783
78, -401.24, -115.00, 180.69, -3208.82, 0.000, 0.000, 0.000, 17:35:10.783
79, -432.88, -130.06, 191.98, -3099.25, 0.000, 0.000, 0.000, 17:35:10.798
80, -479.64, -150.89, 210.34, -3120.38, 0.000, 0.000, 0.000, 17:35:10.798
81, -437.45, -133.91, 197.43, -3138.51, 0.000, 0.000, 0.000, 17:35:10.813
82, -400.23, -116.58, 179.65, -3209.99, 0.000, 0.000, 0.000, 17:35:10.813
83, -441.93, -133.39, 186.46, -3141.98, 0.000, 0.000, 0.000, 17:35:10.813
84, -476.67, -148.49, 210.28, -3106.91, 0.000, 0.000, 0.000, 17:35:10.813
85, -440.92, -130.99, 212.41, -3191.56, 0.000, 0.000, 0.000, 17:35:10.828
86, -416.21, -116.16, 201.87, -3324.67, 0.000, 0.000, 0.000, 17:35:10.828
87, -439.07, -135.50, 185.51, -3146.08, 0.000, 0.000, 0.000, 17:35:10.843
88, -470.25, -145.11, 206.96, -3097.74, 0.000, 0.000, 0.000, 17:35:10.843
89, -438.44, -124.17, 211.42, -3196.75, 0.000, 0.000, 0.000, 17:35:10.843
90, -404.65, -115.03, 187.95, -3221.57, 0.000, 0.000, 0.000, 17:35:10.843
91, -437.90, -132.35, 180.59, -3126.81, 0.000, 0.000, 0.000, 17:35:10.858
92, -474.37, -140.37, 215.27, -3127.93, 0.000, 0.000, 0.000, 17:35:10.858
93, -434.72, -118.75, 205.85, -3156.34, 0.000, 0.000, 0.000, 17:35:10.873
94, -406.62, -109.90, 176.47, -3247.82, 0.000, 0.000, 0.000, 17:35:10.873
95, -447.97, -134.98, 175.05, -3197.71, 0.000, 0.000, 0.000, 17:35:10.873
96, -475.92, -144.29, 202.27, -3109.28, 0.000, 0.000, 0.000, 17:35:10.873
97, -437.19, -126.47, 205.71, -3213.65, 0.000, 0.000, 0.000, 17:35:10.888
98, -413.36, -117.37, 192.10, -3288.99, 0.000, 0.000, 0.000, 17:35:10.888
99, -440.92, -139.03, 185.04, -3140.30, 0.000, 0.000, 0.000, 17:35:10.902
100, -472.53, -154.16, 206.35, -3095.61, 0.000, 0.000, 0.000, 17:35:10.903
101, -436.19, -127.01, 209.98, -3175.99, 0.000, 0.000, 0.000, 17:35:10.903
102, -400.97, -110.93, 191.76, -3193.13, 0.000, 0.000, 0.000, 17:35:10.903
103, -433.02, -128.69, 183.39, -3108.07, 0.000, 0.000, 0.000, 17:35:10.918
104, -468.38, -136.72, 214.71, -3103.15, 0.000, 0.000, 0.000, 17:35:10.918
105, -426.69, -118.84, 216.02, -3111.80, 0.000, 0.000, 0.000, 17:35:10.933
106, -408.25, -111.27, 174.81, -3207.53, 0.000, 0.000, 0.000, 17:35:10.933
107, -438.82, -136.24, 173.45, -3145.88, 0.000, 0.000, 0.000, 17:35:10.933
108, -465.52, -139.97, 206.94, -3046.46, 0.000, 0.000, 0.000, 17:35:10.933
109, -431.76, -119.79, 213.92, -3158.71, 0.000, 0.000, 0.000, 17:35:10.948
110, -411.24, -114.15, 199.47, -3254.22, 0.000, 0.000, 0.000, 17:35:10.948
111, -438.93, -131.02, 182.67, -3115.93, 0.000, 0.000, 0.000, 17:35:10.963
112, -473.83, -145.40, 201.96, -3060.62, 0.000, 0.000, 0.000, 17:35:10.963
113, -434.43, -119.85, 216.74, -3179.04, 0.000, 0.000, 0.000, 17:35:10.963
114, -404.68, -113.31, 190.13, -3213.32, 0.000, 0.000, 0.000, 17:35:10.963
115, -445.89, -134.18, 178.15, -3152.40, 0.000, 0.000, 0.000, 17:35:10.978
116, -480.52, -147.39, 200.60, -3154.65, 0.000, 0.000, 0.000, 17:35:10.978
117, -438.73, -116.24, 201.03, -3150.92, 0.000, 0.000, 0.000, 17:35:10.992
118, -403.12, -103.93, 179.21, -3204.81, 0.000, 0.000, 0.000, 17:35:10.993
119, -449.48, -138.54, 173.14, -3167.57, 0.000, 0.000, 0.000, 17:35:10.993
120, -467.08, -143.69, 213.82, -3038.47, 0.000, 0.000, 0.000, 17:35:10.993
121, -432.45, -128.24, 206.47, -3121.48, 0.000, 0.000, 0.000, 17:35:11.008
122, -403.06, -109.18, 197.81, -3253.86, 0.000, 0.000, 0.000, 17:35:11.008
123, -434.34, -131.33, 172.55, -3113.81, 0.000, 0.000, 0.000, 17:35:11.023
124, -462.17, -135.80, 204.24, -3044.02, 0.000, 0.000, 0.000, 17:35:11.023
125, -442.86, -132.53, 201.32, -3168.64, 0.000, 0.000, 0.000, 17:35:11.023
126, -405.53, -108.56, 177.05, -3182.59, 0.000, 0.000, 0.000, 17:35:11.023
127, -438.60, -125.58, 176.91, -3126.00, 0.000, 0.000, 0.000, 17:35:11.038
128, -471.29, -142.63, 212.05, -3101.93, 0.000, 0.000, 0.000, 17:35:11.038
129, -437.58, -128.91, 211.61, -3146.96, 0.000, 0.000, 0.000, 17:35:11.052
130, -407.70, -119.91, 180.90, -3254.29, 0.000, 0.000, 0.000, 17:35:11.053
131, -437.52, -134.75, 190.87, -3155.62, 0.000, 0.000, 0.000, 17:35:11.053
132, -465.75, -145.39, 205.95, -3038.90, 0.000, 0.000, 0.000, 17:35:11.053
133, -425.16, -116.05, 216.19, -3128.71, 0.000, 0.000, 0.000, 17:35:11.083
134, -403.18, -113.00, 195.02, -3260.21, 0.000, 0.000, 0.000, 17:35:11.083
135, -436.76, -135.97, 182.93, -3092.51, 0.000, 0.000, 0.000, 17:35:11.083
136, -466.02, -143.53, 203.13, -3044.21, 0.000, 0.000, 0.000, 17:35:11.083
137, -431.62, -116.04, 210.90, -3139.75, 0.000, 0.000, 0.000, 17:35:11.084
138, -393.41, -108.39, 196.63, -3193.24, 0.000, 0.000, 0.000, 17:35:11.084
139, -426.23, -127.79, 188.71, -3104.36, 0.000, 0.000, 0.000, 17:35:11.098
140, -477.29, -147.45, 221.76, -3140.81, 0.000, 0.000, 0.000, 17:35:11.098
141, -431.11, -124.76, 203.74, -3158.01, 0.000, 0.000, 0.000, 17:35:11.112
142, -403.28, -112.03, 184.10, -3214.03, 0.000, 0.000, 0.000, 17:35:11.113
143, -432.08, -122.87, 187.60, -3157.02, 0.000, 0.000, 0.000, 17:35:11.113
144, -466.92, -141.01, 197.49, -3067.82, 0.000, 0.000, 0.000, 17:35:11.113
145, -437.19, -127.63, 202.44, -3135.78, 0.000, 0.000, 0.000, 17:35:11.128
146, -406.03, -114.27, 200.26, -3254.07, 0.000, 0.000, 0.000, 17:35:11.128
147, -429.86, -126.01, 196.31, -3104.25, 0.000, 0.000, 0.000, 17:35:11.143
148, -474.33, -144.04, 198.52, -3077.96, 0.000, 0.000, 0.000, 17:35:11.143
149, -443.03, -128.70, 215.75, -3160.95, 0.000, 0.000, 0.000, 17:35:11.143
150, -406.65, -111.77, 187.14, -3193.81, 0.000, 0.000, 0.000, 17:35:11.143
151, -430.62, -126.14, 187.51, -3096.56, 0.000, 0.000, 0.000, 17:35:11.158
152, -474.24, -142.72, 221.26, -3080.76, 0.000, 0.000, 0.000, 17:35:11.158
153, -434.47, -123.57, 209.98, -3109.71, 0.000, 0.000, 0.000, 17:35:11.173
154, -402.59, -113.10, 192.56, -3190.25, 0.000, 0.000, 0.000, 17:35:11.173
155, -431.38, -122.60, 178.46, -3140.19, 0.000, 0.000, 0.000, 17:35:11.173
156, -463.91, -139.27, 200.35, -3036.18, 0.000, 0.000, 0.000, 17:35:11.173
157, -438.79, -118.68, 207.36, -3151.53, 0.000, 0.000, 0.000, 17:35:11.188
158, -407.32, -111.58, 186.57, -3254.90, 0.000, 0.000, 0.000, 17:35:11.188
159, -435.34, -134.06, 181.83, -3121.25, 0.000, 0.000, 0.000, 17:35:11.203
160, -470.75, -147.94, 205.72, -3093.27, 0.000, 0.000, 0.000, 17:35:11.203
161, -446.36, -129.65, 221.66, -3207.74, 0.000, 0.000, 0.000, 17:35:11.203
162, -407.93, -109.00, 193.52, -3225.40, 0.000, 0.000, 0.000, 17:35:11.203
163, -442.28, -130.31, 178.40, -3163.83, 0.000, 0.000, 0.000, 17:35:11.218
164, -475.47, -143.56, 210.66, -3119.84, 0.000, 0.000, 0.000, 17:35:11.218
165, -437.21, -123.67, 210.43, -3165.47, 0.000, 0.000, 0.000, 17:35:11.232
166, -396.41, -103.12, 189.50, -3249.09, 0.000, 0.000, 0.000, 17:35:11.233
167, -441.15, -132.98, 186.25, -3175.23, 0.000, 0.000, 0.000, 17:35:11.233
168, -461.78, -141.68, 205.80, -3091.85, 0.000, 0.000, 0.000, 17:35:11.233
169, -438.59, -126.86, 209.99, -3178.83, 0.000, 0.000, 0.000, 17:35:11.248
170, -406.70, -108.61, 192.42, -3297.98, 0.000, 0.000, 0.000, 17:35:11.248
171, -437.33, -130.11, 171.69, -3161.83, 0.000, 0.000, 0.000, 17:35:11.263
172, -464.00, -137.95, 208.59, -3061.37, 0.000, 0.000, 0.000, 17:35:11.263
173, -443.07, -123.71, 215.23, -3195.01, 0.000, 0.000, 0.000, 17:35:11.263
174, -396.08, -106.85, 195.46, -3205.25, 0.000, 0.000, 0.000, 17:35:11.263
175, -433.73, -125.75, 183.45, -3147.79, 0.000, 0.000, 0.000, 17:35:11.278
176, -475.24, -139.85, 222.76, -3089.94, 0.000, 0.000, 0.000, 17:35:11.278
177, -439.23, -117.00, 219.33, -3143.87, 0.000, 0.000, 0.000, 17:35:11.292
178, -403.64, -110.58, 192.48, -3231.57, 0.000, 0.000, 0.000, 17:35:11.293
179, -435.49, -122.19, 196.40, -3136.64, 0.000, 0.000, 0.000, 17:35:11.293
180, -476.34, -146.65, 207.10, -3037.11, 0.000, 0.000, 0.000, 17:35:11.293
181, -440.57, -126.89, 218.80, -3119.53, 0.000, 0.000, 0.000, 17:35:11.308
182, -410.92, -110.85, 209.86, -3252.51, 0.000, 0.000, 0.000, 17:35:11.308
183, -433.93, -124.37, 181.29, -3095.60, 0.000, 0.000, 0.000, 17:35:11.323
184, -466.85, -140.54, 204.10, -3057.21, 0.000, 0.000, 0.000, 17:35:11.323
185, -438.39, -122.44, 217.84, -3176.44, 0.000, 0.000, 0.000, 17:35:11.323
186, -401.21, -103.86, 182.75, -3172.04, 0.000, 0.000, 0.000, 17:35:11.323
187, -435.97, -128.06, 179.75, -3154.43, 0.000, 0.000, 0.000, 17:35:11.338
188, -470.64, -133.79, 212.48, -3114.59, 0.000, 0.000, 0.000, 17:35:11.338
189, -438.71, -123.02, 203.60, -3142.26, 0.000, 0.000, 0.000, 17:35:11.353
190, -400.60, -104.92, 190.24, -3227.48, 0.000, 0.000, 0.000, 17:35:11.353
191, -434.98, -123.85, 184.69, -3158.59, 0.000, 0.000, 0.000, 17:35:11.353
192, -474.29, -141.16, 197.69, -3069.32, 0.000, 0.000, 0.000, 17:35:11.353
193, -449.74, -130.76, 209.28, -3158.71, 0.000, 0.000, 0.000, 17:35:11.368
194, -415.26, -114.71, 182.41, -3272.58, 0.000, 0.000, 0.000, 17:35:11.368
195, -430.11, -124.81, 174.79, -3158.10, 0.000, 0.000, 0.000, 17:35:11.398
196, -465.72, -141.40, 209.58, -3103.76, 0.000, 0.000, 0.000, 17:35:11.398
197, -441.59, -128.59, 207.39, -3171.99, 0.000, 0.000, 0.000, 17:35:11.398
198, -402.92, -108.62, 189.85, -3191.78, 0.000, 0.000, 0.000, 17:35:11.398
199, -431.57, -125.98, 185.97, -3130.25, 0.000, 0.000, 0.000, 17:35:11.399
200, -472.24, -148.64, 204.89, -3049.70, 0.000, 0.000, 0.000, 17:35:11.399
0, -435.95, -130.65, 207.85, -3114.30, 0.000, 0.000, 0.000, 17:35:11.400
1, -397.44, -109.61, 188.89, -3196.94, 0.000, 0.000, 0.000, 17:35:11.413
2, -449.58, -137.29, 197.95, -3319.31, 0.000, 0.000, 0.000, 17:35:11.413
3, -468.19, -145.54, 202.32, -3066.23, 0.000, 0.000, 0.000, 17:35:11.428
4, -443.30, -126.58, 209.83, -3150.66, 0.000, 0.000, 0.000, 17:35:11.428
5, -409.17, -116.13, 191.54, -3227.78, 0.000, 0.000, 0.000, 17:35:11.428
6, -424.50, -125.24, 181.56, -3110.53, 0.000, 0.000, 0.000, 17:35:11.429
7, -466.02, -148.60, 206.83, -3038.87, 0.000, 0.000, 0.000, 17:35:11.443
8, -451.99, -132.99, 217.56, -3171.30, 0.000, 0.000, 0.000, 17:35:11.443
9, -404.76, -112.29, 183.58, -3188.60, 0.000, 0.000, 0.000, 17:35:11.457
10, -438.77, -134.83, 180.81, -3159.70, 0.000, 0.000, 0.000, 17:35:11.458
11, -476.01, -147.02, 216.28, -3116.86, 0.000, 0.000, 0.000, 17:35:11.458
12, -448.62, -124.86, 207.83, -3161.62, 0.000, 0.000, 0.000, 17:35:11.458
13, -410.29, -106.31, 190.24, -3239.99, 0.000, 0.000, 0.000, 17:35:11.473
14, -442.76, -128.04, 188.58, -3187.51, 0.000, 0.000, 0.000, 17:35:11.473
15, -474.05, -143.96, 200.35, -3051.92, 0.000, 0.000, 0.000, 17:35:11.487
16, -445.76, -131.05, 197.71, -3172.46, 0.000, 0.000, 0.000, 17:35:11.488
17, -407.56, -108.95, 186.37, -3238.26, 0.000, 0.000, 0.000, 17:35:11.488
18, -433.87, -128.75, 169.79, -3141.99, 0.000, 0.000, 0.000, 17:35:11.488
19, -474.05, -147.54, 194.22, -3075.12, 0.000, 0.000, 0.000, 17:35:11.503
20, -445.29, -128.53, 217.74, -3217.18, 0.000, 0.000, 0.000, 17:35:11.503
21, -387.88, -101.17, 192.24, -3177.18, 0.000, 0.000, 0.000, 17:35:11.517
22, -418.48, -121.90, 179.74, -3105.66, 0.000, 0.000, 0.000, 17:35:11.518
23, -459.44, -137.49, 207.13, -3049.34, 0.000, 0.000, 0.000, 17:35:11.519
24, -431.46, -118.28, 225.18, -3084.53, 0.000, 0.000, 0.000, 17:35:11.519
25, -396.17, -104.53, 194.59, -3182.19, 0.000, 0.000, 0.000, 17:35:11.533
26, -431.89, -124.05, 193.74, -3178.02, 0.000, 0.000, 0.000, 17:35:11.533
27, -466.12, -147.33, 212.14, -3042.52, 0.000, 0.000, 0.000, 17:35:11.548
28, -441.45, -130.96, 211.98, -3132.67, 0.000, 0.000, 0.000, 17:35:11.548
29, -408.12, -114.85, 182.92, -3215.93, 0.000, 0.000, 0.000, 17:35:11.548
30, -434.72, -128.46, 182.92, -3149.96, 0.000, 0.000, 0.000, 17:35:11.548
31, -471.01, -148.86, 202.69, -3052.15, 0.000, 0.000, 0.000, 17:35:11.563
32, -455.60, -131.98, 214.57, -3192.62, 0.000, 0.000, 0.000, 17:35:11.563
33, -401.48, -110.00, 190.11, -3186.85, 0.000, 0.000, 0.000, 17:35:11.577
34, -425.13, -122.57, 186.15, -3146.17, 0.000, 0.000, 0.000, 17:35:11.578
35, -477.51, -150.07, 211.75, -3089.79, 0.000, 0.000, 0.000, 17:35:11.578
36, -445.60, -130.26, 211.36, -3143.38, 0.000, 0.000, 0.000, 17:35:11.578
37, -408.78, -109.36, 190.76, -3208.15, 0.000, 0.000, 0.000, 17:35:11.594
38, -432.10, -131.17, 190.32, -3189.99, 0.000, 0.000, 0.000, 17:35:11.594
39, -469.57, -146.68, 205.73, -3032.49, 0.000, 0.000, 0.000, 17:35:11.608
40, -447.57, -129.60, 213.95, -3125.79, 0.000, 0.000, 0.000, 17:35:11.608
41, -408.29, -111.20, 197.03, -3239.55, 0.000, 0.000, 0.000, 17:35:11.608
42, -428.88, -123.14, 192.55, -3132.81, 0.000, 0.000, 0.000, 17:35:11.608
43, -463.84, -140.79, 211.86, -3060.88, 0.000, 0.000, 0.000, 17:35:11.623
44, -455.66, -134.27, 217.65, -3220.15, 0.000, 0.000, 0.000, 17:35:11.623
45, -400.06, -110.67, 192.96, -3212.97, 0.000, 0.000, 0.000, 17:35:11.638
46, -437.46, -129.25, 185.66, -3158.70, 0.000, 0.000, 0.000, 17:35:11.638
47, -472.36, -144.45, 203.14, -3087.99, 0.000, 0.000, 0.000, 17:35:11.638
48, -446.82, -130.83, 210.95, -3133.18, 0.000, 0.000, 0.000, 17:35:11.639
49, -405.55, -110.16, 198.95, -3221.77, 0.000, 0.000, 0.000, 17:35:11.653
50, -441.69, -137.67, 186.49, -3246.45, 0.000, 0.000, 0.000, 17:35:11.653
51, -469.64, -148.67, 207.59, -3060.08, 0.000, 0.000, 0.000, 17:35:11.668
52, -447.43, -131.23, 213.87, -3136.83, 0.000, 0.000, 0.000, 17:35:11.668
53, -407.96, -106.08, 191.82, -3238.16, 0.000, 0.000, 0.000, 17:35:11.669
54, -425.15, -118.98, 183.88, -3119.04, 0.000, 0.000, 0.000, 17:35:11.669
55, -464.49, -140.93, 205.62, -3058.76, 0.000, 0.000, 0.000, 17:35:11.683
56, -450.42, -130.16, 214.37, -3192.28, 0.000, 0.000, 0.000, 17:35:11.683
57, -408.51, -109.67, 184.16, -3189.07, 0.000, 0.000, 0.000, 17:35:11.713
58, -435.46, -129.74, 170.53, -3168.52, 0.000, 0.000, 0.000, 17:35:11.713
59, -471.25, -143.84, 220.50, -3081.96, 0.000, 0.000, 0.000, 17:35:11.713
60, -444.74, -132.74, 200.49, -3108.98, 0.000, 0.000, 0.000, 17:35:11.713
61, -407.10, -115.47, 184.96, -3245.79, 0.000, 0.000, 0.000, 17:35:11.714
62, -436.08, -132.24, 177.03, -3149.74, 0.000, 0.000, 0.000, 17:35:11.714
63, -464.43, -145.35, 207.92, -3030.06, 0.000, 0.000, 0.000, 17:35:11.714
64, -452.92, -133.52, 219.60, -3155.58, 0.000, 0.000, 0.000, 17:35:11.715
65, -427.62, -125.31, 208.33, -3362.46, 0.000, 0.000, 0.000, 17:35:11.728
66, -425.70, -126.78, 180.31, -3114.60, 0.000, 0.000, 0.000, 17:35:11.728
67, -468.30, -140.73, 205.54, -3041.86, 0.000, 0.000, 0.000, 17:35:11.743
68, -456.79, -134.33, 204.45, -3148.95, 0.000, 0.000, 0.000, 17:35:11.743
69, -407.45, -107.09, 187.69, -3210.96, 0.000, 0.000, 0.000, 17:35:11.758
70, -425.45, -126.33, 185.98, -3154.35, 0.000, 0.000, 0.000, 17:35:11.758
71, -468.70, -138.44, 212.30, -3070.30, 0.000, 0.000, 0.000, 17:35:11.758
72, -444.34, -121.22, 213.59, -3126.75, 0.000, 0.000, 0.000, 17:35:11.758
73, -409.56, -108.25, 181.03, -3228.74, 0.000, 0.000, 0.000, 17:35:11.773
74, -436.08, -122.33, 189.56, -3212.04, 0.000, 0.000, 0.000, 17:35:11.773
75, -471.23, -144.66, 200.85, -3059.37, 0.000, 0.000, 0.000, 17:35:11.788
76, -451.76, -131.67, 208.76, -3129.40, 0.000, 0.000, 0.000, 17:35:11.788
77, -420.25, -118.78, 191.01, -3245.46, 0.000, 0.000, 0.000, 17:35:11.788
78, -433.56, -127.27, 168.33, -3138.57, 0.000, 0.000, 0.000, 17:35:11.788
79, -466.43, -141.11, 205.64, -3062.23, 0.000, 0.000, 0.000, 17:35:11.803
80, -462.97, -138.05, 208.14, -3202.78, 0.000, 0.000, 0.000, 17:35:11.803
81, -405.59, -111.82, 191.04, -3212.07, 0.000, 0.000, 0.000, 17:35:11.818
82, -433.74, -130.34, 179.08, -3117.48, 0.000, 0.000, 0.000, 17:35:11.818
83, -473.50, -142.41, 196.93, -3077.26, 0.000, 0.000, 0.000, 17:35:11.818
84, -444.98, -126.62, 208.13, -3087.38, 0.000, 0.000, 0.000, 17:35:11.818
85, -402.99, -108.89, 187.00, -3191.82, 0.000, 0.000, 0.000, 17:35:11.833
86, -437.19, -124.43, 179.40, -3191.13, 0.000, 0.000, 0.000, 17:35:11.833
87, -461.58, -141.07, 197.22, -3038.17, 0.000, 0.000, 0.000, 17:35:11.848
88, -450.34, -129.21, 207.96, -3101.81, 0.000, 0.000, 0.000, 17:35:11.848
89, -414.95, -117.89, 185.31, -3226.77, 0.000, 0.000, 0.000, 17:35:11.848
90, -434.02, -130.17, 175.43, -3150.95, 0.000, 0.000, 0.000, 17:35:11.848
91, -479.28, -143.65, 196.73, -3078.36, 0.000, 0.000, 0.000, 17:35:11.863
92, -460.65, -140.11, 210.90, -3190.36, 0.000, 0.000, 0.000, 17:35:11.863
93, -408.64, -119.21, 189.07, -3180.41, 0.000, 0.000, 0.000, 17:35:11.878
94, -429.41, -126.96, 172.36, -3144.71, 0.000, 0.000, 0.000, 17:35:11.878
95, -465.53, -144.30, 198.63, -3081.06, 0.000, 0.000, 0.000, 17:35:11.878
96, -451.79, -132.12, 205.44, -3116.68, 0.000, 0.000, 0.000, 17:35:11.878
97, -410.21, -115.04, 182.79, -3217.88, 0.000, 0.000, 0.000, 17:35:11.893
98, -435.94, -125.87, 187.14, -3200.53, 0.000, 0.000, 0.000, 17:35:11.893
99, -468.19, -141.21, 200.21, -3045.82, 0.000, 0.000, 0.000, 17:35:11.908
100, -452.70, -133.01, 199.98, -3138.03, 0.000, 0.000, 0.000, 17:35:11.908
101, -414.46, -109.30, 192.13, -3243.02, 0.000, 0.000, 0.000, 17:35:11.908
102, -423.18, -119.47, 169.37, -3143.83, 0.000, 0.000, 0.000, 17:35:11.909
103, -470.27, -140.29, 195.52, -3078.60, 0.000, 0.000, 0.000, 17:35:11.923
104, -454.40, -132.54, 218.56, -3190.85, 0.000, 0.000, 0.000, 17:35:11.923
105, -410.13, -112.22, 181.69, -3217.97, 0.000, 0.000, 0.000, 17:35:11.938
106, -420.76, -119.77, 184.20, -3153.45, 0.000, 0.000, 0.000, 17:35:11.938
107, -466.42, -132.90, 201.29, -3063.64, 0.000, 0.000, 0.000, 17:35:11.938
108, -449.54, -125.87, 211.75, -3117.46, 0.000, 0.000, 0.000, 17:35:11.938
109, -408.91, -109.19, 196.74, -3221.15, 0.000, 0.000, 0.000, 17:35:11.953
110, -438.82, -120.74, 181.41, -3220.29, 0.000, 0.000, 0.000, 17:35:11.953
111, -465.01, -132.14, 199.98, -3013.03, 0.000, 0.000, 0.000, 17:35:11.968
112, -448.09, -122.88, 196.06, -3136.53, 0.000, 0.000, 0.000, 17:35:11.968
113, -408.79, -107.50, 178.90, -3265.90, 0.000, 0.000, 0.000, 17:35:11.968
114, -427.90, -125.60, 167.49, -3169.50, 0.000, 0.000, 0.000, 17:35:11.968
115, -472.90, -146.73, 194.58, -3093.03, 0.000, 0.000, 0.000, 17:35:11.983
116, -463.78, -140.41, 204.01, -3203.68, 0.000, 0.000, 0.000, 17:35:11.983
117, -412.67, -112.42, 190.04, -3206.64, 0.000, 0.000, 0.000, 17:35:11.998
118, -436.08, -127.61, 172.03, -3162.72, 0.000, 0.000, 0.000, 17:35:11.998
119, -482.08, -147.22, 203.93, -3105.64, 0.000, 0.000, 0.000, 17:35:11.998
120, -456.57, -137.72, 203.31, -3150.93, 0.000, 0.000, 0.000, 17:35:11.998
121, -425.12, -123.94, 185.08, -3254.80, 0.000, 0.000, 0.000, 17:35:12.013
122, -446.08, -135.84, 183.32, -3235.54, 0.000, 0.000, 0.000, 17:35:12.013
123, -473.02, -146.81, 197.20, -3067.44, 0.000, 0.000, 0.000, 17:35:12.043
124, -455.76, -136.30, 211.62, -3159.66, 0.000, 0.000, 0.000, 17:35:12.043
125, -419.17, -119.51, 184.12, -3251.35, 0.000, 0.000, 0.000, 17:35:12.043
126, -435.86, -131.40, 166.98, -3152.26, 0.000, 0.000, 0.000, 17:35:12.043
127, -474.25, -153.86, 193.89, -3088.18, 0.000, 0.000, 0.000, 17:35:12.044
128, -457.54, -137.80, 196.36, -3143.31, 0.000, 0.000, 0.000, 17:35:12.044
129, -402.59, -104.88, 187.80, -3193.26, 0.000, 0.000, 0.000, 17:35:12.045
130, -426.31, -124.56, 171.82, -3163.06, 0.000, 0.000, 0.000, 17:35:12.045
131, -493.82, -159.64, 215.47, -3262.10, 0.000, 0.000, 0.000, 17:35:12.058
132, -458.30, -141.11, 191.48, -3131.17, 0.000, 0.000, 0.000, 17:35:12.058
133, -415.13, -118.70, 175.40, -3194.43, 0.000, 0.000, 0.000, 17:35:12.073
134, -432.63, -132.96, 171.38, -3168.57, 0.000, 0.000, 0.000, 17:35:12.073
135, -473.70, -143.50, 194.06, -3063.37, 0.000, 0.000, 0.000, 17:35:12.088
136, -448.11, -123.69, 213.93, -3153.31, 0.000, 0.000, 0.000, 17:35:12.088
137, -414.72, -108.57, 195.87, -3255.27, 0.000, 0.000, 0.000, 17:35:12.088
138, -429.11, -125.23, 176.86, -3146.23, 0.000, 0.000, 0.000, 17:35:12.088
139, -475.25, -147.45, 204.64, -3100.67, 0.000, 0.000, 0.000, 17:35:12.103
140, -465.04, -135.26, 217.11, -3205.10, 0.000, 0.000, 0.000, 17:35:12.103
141, -405.14, -104.66, 187.64, -3211.80, 0.000, 0.000, 0.000, 17:35:12.117
142, -433.04, -125.91, 172.83, -3180.47, 0.000, 0.000, 0.000, 17:35:12.118
143, -484.88, -152.86, 194.71, -3119.79, 0.000, 0.000, 0.000, 17:35:12.118
144, -460.00, -137.96, 210.83, -3134.05, 0.000, 0.000, 0.000, 17:35:12.118
145, -411.78, -113.89, 192.42, -3241.82, 0.000, 0.000, 0.000, 17:35:12.133
146, -440.92, -131.21, 182.55, -3222.59, 0.000, 0.000, 0.000, 17:35:12.133
147, -475.89, -143.39, 197.19, -3083.46, 0.000, 0.000, 0.000, 17:35:12.148
148, -460.27, -136.68, 205.78, -3152.86, 0.000, 0.000, 0.000, 17:35:12.148
149, -418.78, -120.93, 193.74, -3235.11, 0.000, 0.000, 0.000, 17:35:12.148
150, -435.81, -132.03, 176.19, -3142.59, 0.000, 0.000, 0.000, 17:35:12.148
151, -474.96, -152.06, 198.03, -3100.68, 0.000, 0.000, 0.000, 17:35:12.163
152, -470.06, -144.00, 211.61, -3212.25, 0.000, 0.000, 0.000, 17:35:12.163
153, -411.70, -121.10, 186.81, -3216.50, 0.000, 0.000, 0.000, 17:35:12.177
154, -431.46, -138.34, 172.65, -3155.82, 0.000, 0.000, 0.000, 17:35:12.178
155, -483.16, -155.49, 191.11, -3097.60, 0.000, 0.000, 0.000, 17:35:12.178
156, -456.92, -138.55, 199.59, -3107.24, 0.000, 0.000, 0.000, 17:35:12.178
157, -404.44, -115.67, 190.22, -3219.87, 0.000, 0.000, 0.000, 17:35:12.193
158, -437.75, -129.50, 176.45, -3239.13, 0.000, 0.000, 0.000, 17:35:12.193
159, -474.57, -150.34, 196.90, -3058.44, 0.000, 0.000, 0.000, 17:35:12.207
160, -453.57, -132.82, 209.60, -3126.32, 0.000, 0.000, 0.000, 17:35:12.208
161, -412.69, -115.28, 180.97, -3260.48, 0.000, 0.000, 0.000, 17:35:12.208
162, -429.63, -131.40, 171.55, -3161.11, 0.000, 0.000, 0.000, 17:35:12.208
163, -464.76, -137.30, 200.51, -3075.20, 0.000, 0.000, 0.000, 17:35:12.223
164, -458.77, -131.90, 219.14, -3187.93, 0.000, 0.000, 0.000, 17:35:12.223
165, -413.11, -111.08, 185.06, -3220.63, 0.000, 0.000, 0.000, 17:35:12.238
166, -419.51, -119.16, 177.22, -3168.33, 0.000, 0.000, 0.000, 17:35:12.238
167, -470.90, -140.18, 207.93, -3093.37, 0.000, 0.000, 0.000, 17:35:12.238
168, -453.66, -131.23, 217.98, -3100.43, 0.000, 0.000, 0.000, 17:35:12.238
169, -403.37, -110.98, 191.17, -3191.49, 0.000, 0.000, 0.000, 17:35:12.253
170, -427.32, -127.93, 191.73, -3198.94, 0.000, 0.000, 0.000, 17:35:12.253
171, -462.27, -141.69, 198.20, -3046.96, 0.000, 0.000, 0.000, 17:35:12.268
172, -450.31, -134.52, 203.26, -3136.47, 0.000, 0.000, 0.000, 17:35:12.268
173, -416.90, -117.67, 185.93, -3236.15, 0.000, 0.000, 0.000, 17:35:12.268
174, -430.26, -137.43, 171.52, -3161.31, 0.000, 0.000, 0.000, 17:35:12.268
175, -468.58, -143.42, 206.88, -3077.07, 0.000, 0.000, 0.000, 17:35:12.283
176, -464.37, -134.70, 216.87, -3187.59, 0.000, 0.000, 0.000, 17:35:12.283
177, -412.37, -116.57, 188.51, -3215.30, 0.000, 0.000, 0.000, 17:35:12.298
178, -421.17, -118.94, 181.82, -3180.71, 0.000, 0.000, 0.000, 17:35:12.298
179, -474.47, -149.94, 192.39, -3111.28, 0.000, 0.000, 0.000, 17:35:12.298
180, -460.13, -131.94, 212.46, -3142.95, 0.000, 0.000, 0.000, 17:35:12.298
181, -412.14, -109.84, 190.94, -3238.19, 0.000, 0.000, 0.000, 17:35:12.313
182, -430.97, -124.14, 189.52, -3248.44, 0.000, 0.000, 0.000, 17:35:12.313
183, -473.75, -139.17, 202.93, -3082.26, 0.000, 0.000, 0.000, 17:35:12.328
184, -459.32, -133.77, 205.46, -3137.68, 0.000, 0.000, 0.000, 17:35:12.328
185, -419.85, -122.60, 185.07, -3237.97, 0.000, 0.000, 0.000, 17:35:12.328
186, -427.90, -128.13, 179.58, -3150.87, 0.000, 0.000, 0.000, 17:35:12.328
187, -464.89, -143.25, 204.29, -3066.41, 0.000, 0.000, 0.000, 17:35:12.357
188, -459.70, -137.04, 221.60, -3155.22, 0.000, 0.000, 0.000, 17:35:12.358
189, -415.18, -117.82, 185.42, -3211.97, 0.000, 0.000, 0.000, 17:35:12.358
190, -425.39, -123.58, 174.22, -3169.26, 0.000, 0.000, 0.000, 17:35:12.358
191, -460.49, -137.17, 209.37, -3042.34, 0.000, 0.000, 0.000, 17:35:12.359
192, -450.44, -133.87, 209.29, -3083.92, 0.000, 0.000, 0.000, 17:35:12.359
193, -408.25, -109.93, 186.85, -3223.95, 0.000, 0.000, 0.000, 17:35:12.373
194, -436.57, -128.28, 187.89, -3268.72, 0.000, 0.000, 0.000, 17:35:12.373
195, -470.38, -145.28, 187.45, -3066.41, 0.000, 0.000, 0.000, 17:35:12.388
196, -456.91, -137.72, 205.08, -3110.84, 0.000, 0.000, 0.000, 17:35:12.388
197, -411.78, -109.45, 192.56, -3220.71, 0.000, 0.000, 0.000, 17:35:12.388
198, -416.24, -114.94, 171.77, -3128.16, 0.000, 0.000, 0.000, 17:35:12.388
199, -460.60, -133.74, 192.83, -3090.28, 0.000, 0.000, 0.000, 17:35:12.402
200, -460.46, -131.29, 214.68, -3171.43, 0.000, 0.000, 0.000, 17:35:12.403
0, -412.19, -114.20, 179.76, -3197.11, 0.000, 0.000, 0.000, 17:35:12.403
1, -428.67, -131.09, 172.87, -3180.59, 0.000, 0.000, 0.000, 17:35:12.418
2, -471.72, -147.88, 210.39, -3116.50, 0.000, 0.000, 0.000, 17:35:12.418
3, -457.57, -141.29, 203.79, -3098.12, 0.000, 0.000, 0.000, 17:35:12.432
4, -408.25, -112.08, 191.35, -3200.08, 0.000, 0.000, 0.000, 17:35:12.433
5, -429.89, -132.68, 176.98, -3174.93, 0.000, 0.000, 0.000, 17:35:12.433
6, -470.88, -151.20, 196.19, -3043.50, 0.000, 0.000, 0.000, 17:35:12.433
7, -451.65, -132.04, 219.01, -3076.09, 0.000, 0.000, 0.000, 17:35:12.448
8, -412.71, -115.56, 205.41, -3252.97, 0.000, 0.000, 0.000, 17:35:12.448
9, -424.08, -123.93, 182.05, -3147.20, 0.000, 0.000, 0.000, 17:35:12.463
10, -472.72, -145.19, 201.59, -3049.06, 0.000, 0.000, 0.000, 17:35:12.463
11, -460.58, -139.02, 211.16, -3126.76, 0.000, 0.000, 0.000, 17:35:12.463
12, -412.50, -112.51, 179.36, -3211.97, 0.000, 0.000, 0.000, 17:35:12.463
13, -420.44, -122.59, 175.07, -3180.29, 0.000, 0.000, 0.000, 17:35:12.478
14, -481.59, -149.29, 194.90, -3099.61, 0.000, 0.000, 0.000, 17:35:12.478
15, -456.93, -138.20, 197.36, -3074.98, 0.000, 0.000, 0.000, 17:35:12.493
16, -407.92, -109.53, 187.09, -3209.36, 0.000, 0.000, 0.000, 17:35:12.493
17, -424.01, -123.92, 180.97, -3202.85, 0.000, 0.000, 0.000, 17:35:12.493
18, -470.30, -152.66, 188.74, -3103.97, 0.000, 0.000, 0.000, 17:35:12.493
19, -458.89, -139.46, 200.14, -3163.57, 0.000, 0.000, 0.000, 17:35:12.508
20, -413.37, -113.99, 194.30, -3252.95, 0.000, 0.000, 0.000, 17:35:12.508
21, -423.87, -126.24, 173.31, -3136.08, 0.000, 0.000, 0.000, 17:35:12.523
22, -466.85, -149.86, 197.30, -3072.17, 0.000, 0.000, 0.000, 17:35:12.523
23, -457.11, -135.30, 208.35, -3152.14, 0.000, 0.000, 0.000, 17:35:12.523
24, -406.16, -113.90, 192.52, -3201.95, 0.000, 0.000, 0.000, 17:35:12.523
25, -427.83, -127.48, 170.91, -3174.16, 0.000, 0.000, 0.000, 17:35:12.538
26, -480.52, -159.25, 199.26, -3139.73, 0.000, 0.000, 0.000, 17:35:12.538
27, -464.54, -139.99, 198.46, -3101.42, 0.000, 0.000, 0.000, 17:35:12.553
28, -423.17, -118.61, 178.88, -3219.91, 0.000, 0.000, 0.000, 17:35:12.553
29, -433.58, -122.21, 181.71, -3206.37, 0.000, 0.000, 0.000, 17:35:12.553
30, -475.46, -146.33, 191.61, -3083.52, 0.000, 0.000, 0.000, 17:35:12.553
31, -455.84, -130.61, 222.85, -3114.25, 0.000, 0.000, 0.000, 17:35:12.568
32, -416.58, -117.86, 192.40, -3277.22, 0.000, 0.000, 0.000, 17:35:12.568
33, -423.92, -127.25, 163.14, -3176.93, 0.000, 0.000, 0.000, 17:35:12.583
34, -469.09, -144.76, 188.69, -3082.92, 0.000, 0.000, 0.000, 17:35:12.583
35, -460.06, -131.88, 203.98, -3138.99, 0.000, 0.000, 0.000, 17:35:12.583
36, -421.74, -121.39, 182.08, -3210.29, 0.000, 0.000, 0.000, 17:35:12.583
37, -413.38, -120.82, 180.52, -3198.37, 0.000, 0.000, 0.000, 17:35:12.598
38, -471.66, -148.04, 202.68, -3137.37, 0.000, 0.000, 0.000, 17:35:12.598
39, -451.32, -130.91, 207.57, -3128.96, 0.000, 0.000, 0.000, 17:35:12.613
40, -412.99, -114.41, 197.06, -3244.73, 0.000, 0.000, 0.000, 17:35:12.613
41, -435.43, -136.33, 178.34, -3228.51, 0.000, 0.000, 0.000, 17:35:12.613
42, -464.71, -146.86, 199.27, -3073.58, 0.000, 0.000, 0.000, 17:35:12.613
43, -456.58, -139.95, 210.55, -3116.22, 0.000, 0.000, 0.000, 17:35:12.628
44, -412.50, -115.05, 202.50, -3250.20, 0.000, 0.000, 0.000, 17:35:12.628
45, -417.51, -121.98, 179.52, -3185.50, 0.000, 0.000, 0.000, 17:35:12.643
46, -467.17, -144.62, 198.54, -3099.29, 0.000, 0.000, 0.000, 17:35:12.643
47, -458.92, -133.60, 214.33, -3085.11, 0.000, 0.000, 0.000, 17:35:12.643
48, -417.51, -113.27, 188.72, -3164.12, 0.000, 0.000, 0.000, 17:35:12.643
49, -420.75, -124.72, 168.58, -3168.07, 0.000, 0.000, 0.000, 17:35:12.673
50, -473.74, -145.61, 200.80, -3105.59, 0.000, 0.000, 0.000, 17:35:12.673
51, -451.62, -128.48, 208.38, -3103.47, 0.000, 0.000, 0.000, 17:35:12.673
52, -409.48, -111.58, 193.24, -3199.81, 0.000, 0.000, 0.000, 17:35:12.673
53, -419.55, -119.78, 171.86, -3149.37, 0.000, 0.000, 0.000, 17:35:12.674
54, -457.35, -132.44, 199.67, -3016.51, 0.000, 0.000, 0.000, 17:35:12.674
55, -444.93, -119.29, 208.69, -3122.55, 0.000, 0.000, 0.000, 17:35:12.688
56, -420.90, -112.47, 199.58, -3317.69, 0.000, 0.000, 0.000, 17:35:12.688
57, -402.30, -115.33, 187.50, -3158.99, 0.000, 0.000, 0.000, 17:35:12.703
58, -468.10, -141.64, 191.43, -3089.60, 0.000, 0.000, 0.000, 17:35:12.703
59, -453.77, -127.73, 215.60, -3135.22, 0.000, 0.000, 0.000, 17:35:12.703
60, -406.72, -110.42, 197.24, -3202.71, 0.000, 0.000, 0.000, 17:35:12.703
61, -419.25, -120.45, 174.24, -3206.22, 0.000, 0.000, 0.000, 17:35:12.718
62, -472.64, -148.68, 207.53, -3103.83, 0.000, 0.000, 0.000, 17:35:12.718
63, -459.20, -136.00, 212.90, -3088.73, 0.000, 0.000, 0.000, 17:35:12.733
64, -409.38, -116.85, 186.86, -3235.24, 0.000, 0.000, 0.000, 17:35:12.733
65, -434.20, -127.10, 172.15, -3227.34, 0.000, 0.000, 0.000, 17:35:12.733
66, -472.54, -141.12, 199.65, -3079.14, 0.000, 0.000, 0.000, 17:35:12.733
67, -462.14, -135.57, 214.71, -3123.93, 0.000, 0.000, 0.000, 17:35:12.748
68, -424.79, -126.21, 200.28, -3270.01, 0.000, 0.000, 0.000, 17:35:12.748
69, -421.72, -122.27, 183.38, -3162.85, 0.000, 0.000, 0.000, 17:35:12.763
70, -476.54, -148.32, 194.44, -3099.03, 0.000, 0.000, 0.000, 17:35:12.763
71, -469.54, -138.77, 214.36, -3107.43, 0.000, 0.000, 0.000, 17:35:12.763
72, -410.56, -108.19, 194.43, -3197.28, 0.000, 0.000, 0.000, 17:35:12.763
73, -419.94, -121.72, 180.64, -3207.06, 0.000, 0.000, 0.000, 17:35:12.778
74, -475.13, -150.04, 219.69, -3131.14, 0.000, 0.000, 0.000, 17:35:12.778
75, -458.69, -137.14, 203.04, -3114.37, 0.000, 0.000, 0.000, 17:35:12.793
76, -416.72, -120.52, 189.68, -3229.04, 0.000, 0.000, 0.000, 17:35:12.793
77, -420.24, -124.42, 181.86, -3191.35, 0.000, 0.000, 0.000, 17:35:12.793
78, -466.02, -142.85, 203.08, -3058.82, 0.000, 0.000, 0.000, 17:35:12.793
79, -462.66, -137.22, 206.74, -3146.80, 0.000, 0.000, 0.000, 17:35:12.808
80, -414.65, -123.34, 199.23, -3278.56, 0.000, 0.000, 0.000, 17:35:12.808
81, -414.14, -121.70, 177.71, -3172.80, 0.000, 0.000, 0.000, 17:35:12.822
82, -462.99, -145.87, 196.30, -3082.03, 0.000, 0.000, 0.000, 17:35:12.823
83, -455.01, -135.16, 217.93, -3095.56, 0.000, 0.000, 0.000, 17:35:12.823
84, -403.24, -110.79, 199.12, -3210.76, 0.000, 0.000, 0.000, 17:35:12.823
85, -421.94, -123.01, 167.35, -3180.35, 0.000, 0.000, 0.000, 17:35:12.838
86, -469.49, -144.48, 201.89, -3140.53, 0.000, 0.000, 0.000, 17:35:12.838
87, -458.64, -135.01, 214.64, -3101.91, 0.000, 0.000, 0.000, 17:35:12.853
88, -411.11, -113.23, 191.61, -3195.39, 0.000, 0.000, 0.000, 17:35:12.853
89, -423.82, -125.36, 178.99, -3192.36, 0.000, 0.000, 0.000, 17:35:12.853
90, -463.32, -138.97, 193.90, -3081.87, 0.000, 0.000, 0.000, 17:35:12.853
91, -466.19, -138.89, 202.18, -3142.18, 0.000, 0.000, 0.000, 17:35:12.868
92, -422.26, -118.60, 194.75, -3235.85, 0.000, 0.000, 0.000, 17:35:12.868
93, -419.11, -124.54, 174.01, -3158.87, 0.000, 0.000, 0.000, 17:35:12.883
94, -457.27, -137.14, 199.94, -3073.26, 0.000, 0.000, 0.000, 17:35:12.883
95, -458.82, -131.18, 219.17, -3117.99, 0.000, 0.000, 0.000, 17:35:12.883
96, -415.78, -114.47, 189.97, -3214.91, 0.000, 0.000, 0.000, 17:35:12.883
97, -422.69, -123.22, 165.86, -3223.20, 0.000, 0.000, 0.000, 17:35:12.898
98, -473.06, -140.95, 201.11, -3161.96, 0.000, 0.000, 0.000, 17:35:12.898
99, -458.95, -139.09, 209.04, -3081.20, 0.000, 0.000, 0.000, 17:35:12.913
100, -408.81, -119.51, 186.80, -3209.31, 0.000, 0.000, 0.000, 17:35:12.913
101, -416.57, -122.71, 181.05, -3196.83, 0.000, 0.000, 0.000, 17:35:12.913
102, -469.92, -147.08, 193.14, -3086.63, 0.000, 0.000, 0.000, 17:35:12.913
103, -460.33, -135.46, 216.73, -3132.33, 0.000, 0.000, 0.000, 17:35:12.928
104, -416.38, -118.79, 206.38, -3276.82, 0.000, 0.000, 0.000, 17:35:12.928
105, -416.71, -129.73, 176.95, -3168.07, 0.000, 0.000, 0.000, 17:35:12.943
106, -472.35, -145.10, 198.14, -3087.99, 0.000, 0.000, 0.000, 17:35:12.943
107, -464.18, -141.68, 223.37, -3104.97, 0.000, 0.000, 0.000, 17:35:12.943
108, -422.28, -125.52, 195.83, -3186.68, 0.000, 0.000, 0.000, 17:35:12.943
109, -422.99, -130.96, 185.06, -3182.95, 0.000, 0.000, 0.000, 17:35:12.958
110, -472.64, -150.18, 215.57, -3122.47, 0.000, 0.000, 0.000, 17:35:12.958
111, -468.73, -143.04, 213.19, -3105.54, 0.000, 0.000, 0.000, 17:35:12.973
112, -420.68, -122.43, 199.95, -3219.86, 0.000, 0.000, 0.000, 17:35:12.973
113, -430.43, -130.72, 192.57, -3220.83, 0.000, 0.000, 0.000, 17:35:12.973
114, -472.39, -145.42, 205.69, -3085.68, 0.000, 0.000, 0.000, 17:35:12.973
115, -457.35, -125.11, 229.45, -3130.67, 0.000, 0.000, 0.000, 17:35:13.003
116, -424.93, -114.84, 203.09, -3279.52, 0.000, 0.000, 0.000, 17:35:13.003
117, -415.08, -113.63, 179.49, -3156.82, 0.000, 0.000, 0.000, 17:35:13.003
118, -462.40, -136.98, 194.63, -3075.57, 0.000, 0.000, 0.000, 17:35:13.003
119, -452.16, -124.70, 204.76, -3088.03, 0.000, 0.000, 0.000, 17:35:13.004
120, -407.08, -106.80, 190.84, -3176.83, 0.000, 0.000, 0.000, 17:35:13.004
121, -406.17, -116.16, 181.42, -3161.32, 0.000, 0.000, 0.000, 17:35:13.018
122, -464.16, -135.44, 207.16, -3160.73, 0.000, 0.000, 0.000, 17:35:13.018
123, -451.08, -129.08, 209.61, -3088.28, 0.000, 0.000, 0.000, 17:35:13.033
124, -405.52, -106.10, 197.80, -3181.52, 0.000, 0.000, 0.000, 17:35:13.033
125, -418.45, -118.35, 183.21, -3192.66, 0.000, 0.000, 0.000, 17:35:13.033
126, -457.23, -127.93, 193.03, -3052.01, 0.000, 0.000, 0.000, 17:35:13.033
127, -460.60, -125.05, 216.46, -3105.09, 0.000, 0.000, 0.000, 17:35:13.048
128, -411.60, -106.55, 202.66, -3233.86, 0.000, 0.000, 0.000, 17:35:13.048
129, -414.55, -114.69, 176.40, -3143.65, 0.000, 0.000, 0.000, 17:35:13.063
130, -461.86, -137.30, 201.67, -3098.01, 0.000, 0.000, 0.000, 17:35:13.063
131, -463.91, -133.87, 215.86, -3114.70, 0.000, 0.000, 0.000, 17:35:13.063
132, -414.30, -119.97, 188.66, -3200.28, 0.000, 0.000, 0.000, 17:35:13.063
133, -410.57, -115.32, 182.47, -3171.98, 0.000, 0.000, 0.000, 17:35:13.078
134, -470.72, -140.67, 196.45, -3122.44, 0.000, 0.000, 0.000, 17:35:13.078
135, -454.22, -134.82, 209.14, -3077.10, 0.000, 0.000, 0.000, 17:35:13.093
136, -407.21, -112.69, 194.12, -3192.47, 0.000, 0.000, 0.000, 17:35:13.093
137, -413.71, -118.08, 165.40, -3176.32, 0.000, 0.000, 0.000, 17:35:13.093
138, -461.85, -133.88, 185.73, -3044.49, 0.000, 0.000, 0.000, 17:35:13.093
139, -453.94, -128.90, 208.65, -3085.87, 0.000, 0.000, 0.000, 17:35:13.108
140, -416.89, -114.42, 202.05, -3265.48, 0.000, 0.000, 0.000, 17:35:13.108
141, -412.72, -116.35, 167.98, -3169.64, 0.000, 0.000, 0.000, 17:35:13.123
142, -460.91, -134.84, 196.34, -3096.22, 0.000, 0.000, 0.000, 17:35:13.123
143, -466.42, -137.11, 202.01, -3127.68, 0.000, 0.000, 0.000, 17:35:13.123
144, -413.32, -110.46, 193.61, -3185.26, 0.000, 0.000, 0.000, 17:35:13.123
145, -418.21, -117.82, 182.17, -3199.51, 0.000, 0.000, 0.000, 17:35:13.138
146, -467.18, -142.82, 201.17, -3148.58, 0.000, 0.000, 0.000, 17:35:13.138
147, -465.21, -144.55, 214.17, -3117.31, 0.000, 0.000, 0.000, 17:35:13.153
148, -413.01, -108.21, 196.02, -3221.56, 0.000, 0.000, 0.000, 17:35:13.153
149, -419.28, -116.61, 181.03, -3217.71, 0.000, 0.000, 0.000, 17:35:13.153
150, -464.39, -140.89, 201.16, -3091.12, 0.000, 0.000, 0.000, 17:35:13.153
151, -458.82, -137.87, 213.77, -3109.44, 0.000, 0.000, 0.000, 17:35:13.168
152, -418.31, -118.35, 203.62, -3271.36, 0.000, 0.000, 0.000, 17:35:13.168
153, -406.85, -117.76, 174.79, -3162.08, 0.000, 0.000, 0.000, 17:35:13.183
154, -462.33, -147.86, 184.18, -3075.74, 0.000, 0.000, 0.000, 17:35:13.183
155, -461.26, -137.92, 204.02, -3117.28, 0.000, 0.000, 0.000, 17:35:13.183
156, -413.00, -121.48, 189.73, -3220.64, 0.000, 0.000, 0.000, 17:35:13.183
157, -420.08, -127.36, 166.01, -3199.32, 0.000, 0.000, 0.000, 17:35:13.199
158, -470.54, -147.37, 191.00, -3142.53, 0.000, 0.000, 0.000, 17:35:13.199
159, -461.45, -138.82, 208.14, -3113.72, 0.000, 0.000, 0.000, 17:35:13.213
160, -410.78, -117.14, 191.44, -3223.82, 0.000, 0.000, 0.000, 17:35:13.213
161, -419.20, -121.27, 178.29, -3221.74, 0.000, 0.000, 0.000, 17:35:13.213
162, -469.25, -148.09, 189.31, -3088.85, 0.000, 0.000, 0.000, 17:35:13.213
163, -466.00, -136.18, 216.78, -3114.04, 0.000, 0.000, 0.000, 17:35:13.228
164, -419.62, -113.79, 206.57, -3260.81, 0.000, 0.000, 0.000, 17:35:13.228
165, -416.69, -119.09, 179.38, -3188.55, 0.000, 0.000, 0.000, 17:35:13.243
166, -467.09, -146.21, 195.30, -3100.78, 0.000, 0.000, 0.000, 17:35:13.243
167, -470.56, -142.73, 212.15, -3103.53, 0.000, 0.000, 0.000, 17:35:13.243
168, -417.96, -114.51, 194.93, -3198.32, 0.000, 0.000, 0.000, 17:35:13.243
169, -409.50, -114.54, 183.82, -3177.87, 0.000, 0.000, 0.000, 17:35:13.258
170, -466.23, -140.24, 202.59, -3117.35, 0.000, 0.000, 0.000, 17:35:13.258
171, -460.76, -140.70, 203.27, -3085.42, 0.000, 0.000, 0.000, 17:35:13.273
172, -408.32, -117.23, 191.99, -3212.32, 0.000, 0.000, 0.000, 17:35:13.273
173, -417.62, -118.16, 172.60, -3221.94, 0.000, 0.000, 0.000, 17:35:13.273
174, -451.53, -129.61, 193.93, -3078.00, 0.000, 0.000, 0.000, 17:35:13.273
175, -455.82, -129.22, 209.28, -3101.41, 0.000, 0.000, 0.000, 17:35:13.288
176, -410.69, -110.60, 200.83, -3252.16, 0.000, 0.000, 0.000, 17:35:13.288
177, -403.84, -111.21, 171.85, -3164.86, 0.000, 0.000, 0.000, 17:35:13.318
178, -456.70, -130.57, 196.42, -3061.23, 0.000, 0.000, 0.000, 17:35:13.318
179, -460.66, -125.95, 213.93, -3101.05, 0.000, 0.000, 0.000, 17:35:13.318
180, -406.59, -107.47, 194.84, -3162.02, 0.000, 0.000, 0.000, 17:35:13.318
181, -414.41, -114.16, 168.12, -3173.33, 0.000, 0.000, 0.000, 17:35:13.319
182, -460.34, -134.62, 200.17, -3049.77, 0.000, 0.000, 0.000, 17:35:13.319
183, -458.55, -133.43, 219.87, -3059.70, 0.000, 0.000, 0.000, 17:35:13.320
184, -422.66, -124.15, 184.40, -3205.01, 0.000, 0.000, 0.000, 17:35:13.320
185, -433.56, -133.04, 199.72, -3348.86, 0.000, 0.000, 0.000, 17:35:13.333
186, -460.54, -149.52, 190.64, -3053.43, 0.000, 0.000, 0.000, 17:35:13.333
187, -467.38, -143.78, 211.14, -3081.33, 0.000, 0.000, 0.000, 17:35:13.348
188, -417.60, -121.97, 194.32, -3220.16, 0.000, 0.000, 0.000, 17:35:13.348
189, -424.73, -130.53, 169.95, -3178.38, 0.000, 0.000, 0.000, 17:35:13.363
190, -464.69, -146.87, 207.36, -3081.46, 0.000, 0.000, 0.000, 17:35:13.363
191, -468.39, -146.58, 218.54, -3080.08, 0.000, 0.000, 0.000, 17:35:13.363
192, -421.19, -121.56, 200.63, -3180.67, 0.000, 0.000, 0.000, 17:35:13.363
193, -424.95, -121.20, 181.51, -3189.18, 0.000, 0.000, 0.000, 17:35:13.378
194, -475.89, -148.32, 210.47, -3123.30, 0.000, 0.000, 0.000, 17:35:13.378
195, -468.53, -143.97, 206.23, -3094.43, 0.000, 0.000, 0.000, 17:35:13.393
196, -422.92, -119.94, 190.37, -3218.40, 0.000, 0.000, 0.000, 17:35:13.393
197, -418.78, -125.63, 182.62, -3217.76, 0.000, 0.000, 0.000, 17:35:13.393
198, -464.86, -146.12, 201.11, -3075.77, 0.000, 0.000, 0.000, 17:35:13.393
199, -466.54, -140.51, 211.94, -3091.80, 0.000, 0.000, 0.000, 17:35:13.408
200, -427.95, -121.72, 205.24, -3275.74, 0.000, 0.000, 0.000, 17:35:13.408
0, -414.04, -120.78, 180.70, -3181.22, 0.000, 0.000, 0.000, 17:35:13.408
