%OpenBCI Raw EEG Data
%
%Sample Rate = 200.0 Hz
%First Column = SampleIndex
%Last Column = Timestamp 
%Other Columns = EEG data in microvolts followed by Accel Data (in G) interleaved with Aux Data
0, -114.11, 101.06, 238.38, -3175.58, 0.000, 0.000, 0.000, 18:31:16.592
1, -106.60, 81.99, 230.49, -3131.24, 0.000, 0.000, 0.000, 18:31:16.607
2, -70.02, 92.03, 231.01, -3108.95, 0.000, 0.000, 0.000, 18:31:16.607
3, -91.72, 96.10, 233.98, -3151.12, 0.000, 0.000, 0.000, 18:31:16.622
4, -106.95, 101.20, 240.66, -3206.01, 0.000, 0.000, 0.000, 18:31:16.622
5, -101.57, 80.69, 227.03, -3169.24, 0.000, 0.000, 0.000, 18:31:16.622
6, -84.97, 85.14, 232.40, -3066.17, 0.000, 0.000, 0.000, 18:31:16.622
7, -92.60, 106.92, 238.97, -3146.81, 0.000, 0.000, 0.000, 18:31:16.637
8, -108.63, 103.56, 233.34, -3216.16, 0.000, 0.000, 0.000, 18:31:16.637
9, -112.22, 83.44, 229.72, -3144.50, 0.000, 0.000, 0.000, 18:31:16.652
10, -88.32, 81.02, 220.77, -3094.05, 0.000, 0.000, 0.000, 18:31:16.653
11, -96.43, 95.21, 221.50, -3161.52, 0.000, 0.000, 0.000, 18:31:16.653
12, -113.59, 103.66, 244.04, -3143.18, 0.000, 0.000, 0.000, 18:31:16.653
13, -107.38, 82.96, 236.87, -3114.56, 0.000, 0.000, 0.000, 18:31:16.667
14, -76.90, 80.28, 225.55, -3102.23, 0.000, 0.000, 0.000, 18:31:16.667
15, -88.96, 103.13, 237.99, -3120.34, 0.000, 0.000, 0.000, 18:31:16.682
16, -107.11, 103.95, 247.41, -3178.89, 0.000, 0.000, 0.000, 18:31:16.682
17, -95.43, 93.14, 237.15, -3137.69, 0.000, 0.000, 0.000, 18:31:16.682
18, -90.31, 80.65, 228.98, -3062.35, 0.000, 0.000, 0.000, 18:31:16.682
19, -91.36, 101.10, 234.45, -3149.06, 0.000, 0.000, 0.000, 18:31:16.697
20, -102.44, 102.73, 237.53, -3213.40, 0.000, 0.000, 0.000, 18:31:16.697
21, -116.33, 81.48, 235.18, -3096.35, 0.000, 0.000, 0.000, 18:31:16.711
22, -90.77, 86.29, 225.20, -3069.82, 0.000, 0.000, 0.000, 18:31:16.712
23, -90.28, 101.84, 229.61, -3159.38, 0.000, 0.000, 0.000, 18:31:16.712
24, -112.40, 108.83, 245.58, -3161.27, 0.000, 0.000, 0.000, 18:31:16.712
25, -100.76, 88.64, 232.17, -3127.26, 0.000, 0.000, 0.000, 18:31:16.742
26, -82.45, 80.80, 216.99, -3099.86, 0.000, 0.000, 0.000, 18:31:16.742
27, -95.97, 102.44, 236.86, -3105.28, 0.000, 0.000, 0.000, 18:31:16.742
28, -124.30, 94.40, 235.85, -3185.58, 0.000, 0.000, 0.000, 18:31:16.742
29, -116.38, 86.27, 229.61, -3093.87, 0.000, 0.000, 0.000, 18:31:16.743
30, -102.15, 80.77, 222.04, -3050.17, 0.000, 0.000, 0.000, 18:31:16.743
31, -101.07, 97.38, 231.66, -3129.08, 0.000, 0.000, 0.000, 18:31:16.771
32, -91.99, 108.29, 231.95, -3265.51, 0.000, 0.000, 0.000, 18:31:16.772
33, -118.33, 86.62, 233.37, -3083.35, 0.000, 0.000, 0.000, 18:31:16.772
34, -94.81, 83.39, 226.92, -3028.25, 0.000, 0.000, 0.000, 18:31:16.772
35, -88.09, 105.50, 233.24, -3124.48, 0.000, 0.000, 0.000, 18:31:16.773
36, -120.47, 100.75, 241.41, -3155.92, 0.000, 0.000, 0.000, 18:31:16.773
37, -108.00, 89.26, 238.15, -3101.33, 0.000, 0.000, 0.000, 18:31:16.787
38, -64.40, 96.72, 224.23, -3167.58, 0.000, 0.000, 0.000, 18:31:16.787
39, -100.93, 103.39, 234.44, -3128.50, 0.000, 0.000, 0.000, 18:31:16.801
40, -124.00, 100.46, 229.11, -3185.24, 0.000, 0.000, 0.000, 18:31:16.802
41, -117.59, 86.29, 223.58, -3127.21, 0.000, 0.000, 0.000, 18:31:16.802
42, -101.58, 74.61, 222.32, -3056.20, 0.000, 0.000, 0.000, 18:31:16.802
43, -106.18, 97.10, 221.97, -3142.60, 0.000, 0.000, 0.000, 18:31:16.817
44, -116.59, 110.23, 227.85, -3212.94, 0.000, 0.000, 0.000, 18:31:16.817
45, -111.74, 90.89, 232.00, -3101.76, 0.000, 0.000, 0.000, 18:31:16.832
46, -98.47, 78.10, 214.38, -3074.58, 0.000, 0.000, 0.000, 18:31:16.832
47, -89.91, 108.08, 222.08, -3155.39, 0.000, 0.000, 0.000, 18:31:16.832
48, -117.36, 106.02, 241.24, -3168.91, 0.000, 0.000, 0.000, 18:31:16.832
49, -113.51, 89.07, 233.42, -3106.33, 0.000, 0.000, 0.000, 18:31:16.847
50, -85.73, 85.99, 220.32, -3105.86, 0.000, 0.000, 0.000, 18:31:16.847
51, -97.62, 104.87, 231.09, -3119.82, 0.000, 0.000, 0.000, 18:31:16.862
52, -117.75, 111.18, 239.97, -3168.65, 0.000, 0.000, 0.000, 18:31:16.862
53, -103.72, 96.05, 232.66, -3129.57, 0.000, 0.000, 0.000, 18:31:16.862
54, -85.25, 89.18, 229.57, -3056.29, 0.000, 0.000, 0.000, 18:31:16.862
55, -98.72, 97.37, 224.47, -3134.74, 0.000, 0.000, 0.000, 18:31:16.877
56, -116.14, 102.52, 225.68, -3207.06, 0.000, 0.000, 0.000, 18:31:16.877
57, -122.41, 83.43, 229.31, -3104.53, 0.000, 0.000, 0.000, 18:31:16.892
58, -85.74, 94.57, 231.54, -3069.41, 0.000, 0.000, 0.000, 18:31:16.892
59, -93.21, 108.17, 224.51, -3164.36, 0.000, 0.000, 0.000, 18:31:16.892
60, -120.36, 106.45, 232.77, -3169.90, 0.000, 0.000, 0.000, 18:31:16.892
61, -120.36, 78.92, 225.22, -3110.74, 0.000, 0.000, 0.000, 18:31:16.907
62, -78.09, 89.63, 222.88, -3119.26, 0.000, 0.000, 0.000, 18:31:16.907
63, -99.89, 96.11, 226.51, -3139.48, 0.000, 0.000, 0.000, 18:31:16.922
64, -114.38, 102.70, 235.47, -3191.56, 0.000, 0.000, 0.000, 18:31:16.922
65, -112.69, 85.48, 223.09, -3115.42, 0.000, 0.000, 0.000, 18:31:16.922
66, -88.81, 85.00, 231.30, -3053.66, 0.000, 0.000, 0.000, 18:31:16.922
67, -90.69, 94.02, 230.91, -3144.93, 0.000, 0.000, 0.000, 18:31:16.937
68, -97.71, 111.36, 235.53, -3240.94, 0.000, 0.000, 0.000, 18:31:16.937
69, -108.50, 85.63, 235.92, -3124.31, 0.000, 0.000, 0.000, 18:31:16.951
70, -84.21, 86.70, 229.97, -3064.89, 0.000, 0.000, 0.000, 18:31:16.952
71, -93.14, 96.29, 228.11, -3149.05, 0.000, 0.000, 0.000, 18:31:16.952
72, -122.67, 94.74, 237.76, -3159.53, 0.000, 0.000, 0.000, 18:31:16.952
73, -105.90, 87.09, 239.93, -3131.56, 0.000, 0.000, 0.000, 18:31:16.967
74, -75.42, 88.96, 220.30, -3124.30, 0.000, 0.000, 0.000, 18:31:16.967
75, -99.60, 88.96, 228.58, -3138.88, 0.000, 0.000, 0.000, 18:31:16.982
76, -122.70, 93.45, 235.65, -3181.55, 0.000, 0.000, 0.000, 18:31:16.982
77, -113.00, 85.73, 232.64, -3121.23, 0.000, 0.000, 0.000, 18:31:16.982
78, -94.62, 80.69, 228.26, -3039.05, 0.000, 0.000, 0.000, 18:31:16.982
79, -99.25, 96.43, 231.41, -3123.28, 0.000, 0.000, 0.000, 18:31:16.997
80, -117.16, 95.66, 224.95, -3240.08, 0.000, 0.000, 0.000, 18:31:16.997
81, -116.11, 79.61, 228.13, -3130.03, 0.000, 0.000, 0.000, 18:31:17.012
82, -97.62, 72.85, 213.85, -3104.07, 0.000, 0.000, 0.000, 18:31:17.012
83, -104.41, 89.37, 212.43, -3169.50, 0.000, 0.000, 0.000, 18:31:17.012
84, -121.87, 92.10, 234.01, -3170.71, 0.000, 0.000, 0.000, 18:31:17.012
85, -105.72, 84.31, 234.09, -3119.25, 0.000, 0.000, 0.000, 18:31:17.027
86, -77.12, 89.54, 224.79, -3107.59, 0.000, 0.000, 0.000, 18:31:17.027
87, -92.18, 98.08, 232.26, -3129.61, 0.000, 0.000, 0.000, 18:31:17.056
88, -124.19, 98.02, 239.26, -3149.26, 0.000, 0.000, 0.000, 18:31:17.057
89, -108.93, 85.77, 231.77, -3121.54, 0.000, 0.000, 0.000, 18:31:17.057
90, -97.10, 77.81, 228.74, -3053.58, 0.000, 0.000, 0.000, 18:31:17.057
91, -103.14, 88.53, 222.48, -3131.42, 0.000, 0.000, 0.000, 18:31:17.058
92, -126.75, 96.65, 233.36, -3164.00, 0.000, 0.000, 0.000, 18:31:17.058
93, -123.56, 76.52, 227.38, -3095.57, 0.000, 0.000, 0.000, 18:31:17.058
94, -107.36, 72.12, 211.46, -3071.91, 0.000, 0.000, 0.000, 18:31:17.058
95, -75.14, 97.52, 205.31, -3261.46, 0.000, 0.000, 0.000, 18:31:17.072
96, -143.76, 87.18, 226.87, -3170.86, 0.000, 0.000, 0.000, 18:31:17.072
97, -129.43, 79.34, 221.16, -3122.58, 0.000, 0.000, 0.000, 18:31:17.087
98, -103.04, 78.13, 213.13, -3096.22, 0.000, 0.000, 0.000, 18:31:17.087
99, -107.09, 91.48, 218.83, -3143.59, 0.000, 0.000, 0.000, 18:31:17.101
100, -128.98, 92.67, 228.52, -3179.54, 0.000, 0.000, 0.000, 18:31:17.101
101, -116.90, 88.05, 229.94, -3115.06, 0.000, 0.000, 0.000, 18:31:17.102
102, -97.04, 80.15, 227.97, -3053.59, 0.000, 0.000, 0.000, 18:31:17.102
103, -108.66, 89.63, 223.07, -3149.08, 0.000, 0.000, 0.000, 18:31:17.117
104, -114.25, 94.55, 223.39, -3235.42, 0.000, 0.000, 0.000, 18:31:17.117
105, -124.14, 78.36, 227.72, -3115.17, 0.000, 0.000, 0.000, 18:31:17.132
106, -88.96, 77.30, 225.88, -3070.49, 0.000, 0.000, 0.000, 18:31:17.132
107, -95.19, 95.63, 230.32, -3153.71, 0.000, 0.000, 0.000, 18:31:17.132
108, -119.86, 99.93, 241.51, -3160.14, 0.000, 0.000, 0.000, 18:31:17.132
109, -112.73, 82.27, 233.80, -3123.31, 0.000, 0.000, 0.000, 18:31:17.147
110, -82.67, 82.47, 219.55, -3106.37, 0.000, 0.000, 0.000, 18:31:17.147
111, -102.03, 91.94, 230.61, -3122.58, 0.000, 0.000, 0.000, 18:31:17.162
112, -117.39, 103.94, 238.45, -3175.20, 0.000, 0.000, 0.000, 18:31:17.162
113, -112.85, 86.68, 230.15, -3124.34, 0.000, 0.000, 0.000, 18:31:17.162
114, -90.94, 83.17, 230.85, -3032.96, 0.000, 0.000, 0.000, 18:31:17.163
115, -94.94, 98.79, 234.41, -3121.83, 0.000, 0.000, 0.000, 18:31:17.177
116, -102.33, 102.35, 241.90, -3224.28, 0.000, 0.000, 0.000, 18:31:17.177
117, -114.51, 81.03, 233.70, -3101.00, 0.000, 0.000, 0.000, 18:31:17.191
118, -90.97, 80.11, 229.65, -3069.81, 0.000, 0.000, 0.000, 18:31:17.192
119, -87.97, 101.37, 235.94, -3130.60, 0.000, 0.000, 0.000, 18:31:17.192
120, -114.48, 104.26, 244.97, -3135.46, 0.000, 0.000, 0.000, 18:31:17.192
121, -103.83, 87.71, 238.40, -3113.48, 0.000, 0.000, 0.000, 18:31:17.207
122, -78.29, 84.57, 222.08, -3133.48, 0.000, 0.000, 0.000, 18:31:17.207
123, -90.29, 91.17, 228.98, -3147.01, 0.000, 0.000, 0.000, 18:31:17.222
124, -116.37, 95.91, 236.34, -3173.56, 0.000, 0.000, 0.000, 18:31:17.222
125, -112.80, 83.66, 231.57, -3108.24, 0.000, 0.000, 0.000, 18:31:17.222
126, -102.97, 79.06, 223.83, -3044.77, 0.000, 0.000, 0.000, 18:31:17.222
127, -102.53, 89.56, 229.70, -3122.81, 0.000, 0.000, 0.000, 18:31:17.237
128, -113.10, 100.23, 235.50, -3220.74, 0.000, 0.000, 0.000, 18:31:17.237
129, -113.35, 89.91, 238.65, -3084.81, 0.000, 0.000, 0.000, 18:31:17.252
130, -94.49, 77.52, 229.03, -3050.25, 0.000, 0.000, 0.000, 18:31:17.252
131, -96.99, 95.46, 227.50, -3142.28, 0.000, 0.000, 0.000, 18:31:17.252
132, -123.01, 98.35, 237.61, -3156.91, 0.000, 0.000, 0.000, 18:31:17.252
133, -121.05, 83.54, 232.27, -3099.09, 0.000, 0.000, 0.000, 18:31:17.267
134, -87.98, 78.85, 223.18, -3099.70, 0.000, 0.000, 0.000, 18:31:17.267
135, -99.33, 92.06, 228.79, -3120.37, 0.000, 0.000, 0.000, 18:31:17.282
136, -116.57, 99.46, 235.00, -3187.35, 0.000, 0.000, 0.000, 18:31:17.282
137, -109.69, 88.37, 230.27, -3131.00, 0.000, 0.000, 0.000, 18:31:17.282
138, -95.45, 79.30, 226.45, -3042.81, 0.000, 0.000, 0.000, 18:31:17.282
139, -102.91, 93.32, 225.74, -3151.49, 0.000, 0.000, 0.000, 18:31:17.297
140, -110.54, 101.37, 230.35, -3206.04, 0.000, 0.000, 0.000, 18:31:17.297
141, -123.66, 80.54, 231.47, -3101.08, 0.000, 0.000, 0.000, 18:31:17.312
142, -96.27, 79.78, 230.09, -3032.26, 0.000, 0.000, 0.000, 18:31:17.312
143, -91.56, 94.13, 228.89, -3136.08, 0.000, 0.000, 0.000, 18:31:17.312
144, -116.89, 97.24, 237.13, -3195.11, 0.000, 0.000, 0.000, 18:31:17.312
145, -107.17, 88.86, 239.58, -3117.44, 0.000, 0.000, 0.000, 18:31:17.327
146, -70.96, 91.34, 227.55, -3117.33, 0.000, 0.000, 0.000, 18:31:17.327
147, -87.87, 98.88, 237.64, -3122.84, 0.000, 0.000, 0.000, 18:31:17.341
148, -114.96, 100.72, 236.77, -3169.93, 0.000, 0.000, 0.000, 18:31:17.341
149, -107.37, 82.68, 227.43, -3140.03, 0.000, 0.000, 0.000, 18:31:17.342
150, -92.61, 80.65, 221.93, -3070.04, 0.000, 0.000, 0.000, 18:31:17.342
151, -91.09, 97.56, 232.61, -3135.28, 0.000, 0.000, 0.000, 18:31:17.357
152, -106.10, 101.19, 231.02, -3216.01, 0.000, 0.000, 0.000, 18:31:17.357
153, -114.42, 85.77, 234.59, -3106.51, 0.000, 0.000, 0.000, 18:31:17.386
154, -89.22, 81.77, 225.52, -3078.75, 0.000, 0.000, 0.000, 18:31:17.387
155, -93.94, 98.89, 227.14, -3144.15, 0.000, 0.000, 0.000, 18:31:17.387
156, -108.45, 104.57, 246.85, -3164.50, 0.000, 0.000, 0.000, 18:31:17.387
157, -101.29, 88.73, 243.54, -3117.48, 0.000, 0.000, 0.000, 18:31:17.388
158, -80.41, 95.40, 240.21, -3057.83, 0.000, 0.000, 0.000, 18:31:17.388
159, -83.90, 102.74, 240.57, -3113.48, 0.000, 0.000, 0.000, 18:31:17.388
160, -115.64, 95.65, 235.25, -3195.72, 0.000, 0.000, 0.000, 18:31:17.389
161, -71.45, 102.71, 222.17, -3248.30, 0.000, 0.000, 0.000, 18:31:17.402
162, -99.14, 79.97, 233.52, -3032.22, 0.000, 0.000, 0.000, 18:31:17.402
163, -91.23, 99.66, 242.10, -3102.77, 0.000, 0.000, 0.000, 18:31:17.417
164, -114.18, 101.04, 241.44, -3164.59, 0.000, 0.000, 0.000, 18:31:17.417
165, -117.38, 86.59, 240.36, -3080.00, 0.000, 0.000, 0.000, 18:31:17.431
166, -95.56, 83.83, 231.29, -3043.50, 0.000, 0.000, 0.000, 18:31:17.432
167, -96.44, 104.10, 232.80, -3117.65, 0.000, 0.000, 0.000, 18:31:17.432
168, -120.09, 101.05, 240.16, -3167.85, 0.000, 0.000, 0.000, 18:31:17.432
169, -117.32, 89.89, 236.78, -3096.66, 0.000, 0.000, 0.000, 18:31:17.447
170, -92.31, 89.13, 220.36, -3092.28, 0.000, 0.000, 0.000, 18:31:17.447
171, -117.26, 87.68, 215.60, -3096.05, 0.000, 0.000, 0.000, 18:31:17.461
172, -124.14, 102.11, 234.35, -3173.23, 0.000, 0.000, 0.000, 18:31:17.461
173, -117.19, 87.52, 225.54, -3115.59, 0.000, 0.000, 0.000, 18:31:17.462
174, -99.62, 86.34, 222.29, -3044.07, 0.000, 0.000, 0.000, 18:31:17.462
175, -99.25, 99.81, 226.16, -3123.79, 0.000, 0.000, 0.000, 18:31:17.477
176, -112.44, 108.39, 225.11, -3206.77, 0.000, 0.000, 0.000, 18:31:17.477
177, -121.27, 87.27, 231.88, -3103.07, 0.000, 0.000, 0.000, 18:31:17.492
178, -104.12, 79.50, 220.14, -3061.93, 0.000, 0.000, 0.000, 18:31:17.492
179, -99.20, 91.71, 216.96, -3160.69, 0.000, 0.000, 0.000, 18:31:17.492
180, -121.09, 102.81, 229.64, -3168.12, 0.000, 0.000, 0.000, 18:31:17.492
181, -125.31, 78.26, 221.21, -3134.23, 0.000, 0.000, 0.000, 18:31:17.507
182, -81.33, 85.72, 219.29, -3100.15, 0.000, 0.000, 0.000, 18:31:17.507
183, -98.97, 99.34, 230.73, -3095.81, 0.000, 0.000, 0.000, 18:31:17.522
184, -114.43, 99.19, 233.20, -3194.44, 0.000, 0.000, 0.000, 18:31:17.522
185, -108.00, 81.54, 223.90, -3143.11, 0.000, 0.000, 0.000, 18:31:17.522
186, -98.19, 74.97, 221.58, -3055.19, 0.000, 0.000, 0.000, 18:31:17.522
187, -98.32, 92.02, 225.78, -3120.94, 0.000, 0.000, 0.000, 18:31:17.537
188, -104.17, 103.80, 228.85, -3238.93, 0.000, 0.000, 0.000, 18:31:17.537
189, -117.10, 85.63, 230.25, -3102.56, 0.000, 0.000, 0.000, 18:31:17.552
190, -94.86, 69.82, 219.71, -3070.32, 0.000, 0.000, 0.000, 18:31:17.552
191, -87.89, 95.38, 234.86, -3138.93, 0.000, 0.000, 0.000, 18:31:17.552
192, -124.84, 93.37, 230.28, -3153.80, 0.000, 0.000, 0.000, 18:31:17.552
193, -123.69, 70.90, 226.67, -3129.37, 0.000, 0.000, 0.000, 18:31:17.567
194, -84.00, 82.82, 215.06, -3137.43, 0.000, 0.000, 0.000, 18:31:17.567
195, -87.16, 101.85, 230.41, -3123.68, 0.000, 0.000, 0.000, 18:31:17.582
196, -118.01, 99.77, 234.48, -3190.92, 0.000, 0.000, 0.000, 18:31:17.582
197, -106.67, 89.72, 229.15, -3160.89, 0.000, 0.000, 0.000, 18:31:17.582
198, -89.02, 82.00, 227.76, -3069.09, 0.000, 0.000, 0.000, 18:31:17.582
199, -96.41, 91.98, 226.69, -3114.54, 0.000, 0.000, 0.000, 18:31:17.597
200, -107.80, 98.61, 226.13, -3237.03, 0.000, 0.000, 0.000, 18:31:17.597
0, -116.49, 88.34, 234.42, -3118.53, 0.000, 0.000, 0.000, 18:31:17.597
1, -88.91, 83.39, 228.91, -3073.31, 0.000, 0.000, 0.000, 18:31:17.612
2, -80.77, 101.43, 229.74, -3171.96, 0.000, 0.000, 0.000, 18:31:17.612
3, -119.33, 97.44, 234.85, -3179.90, 0.000, 0.000, 0.000, 18:31:17.627
4, -119.37, 82.91, 230.34, -3130.00, 0.000, 0.000, 0.000, 18:31:17.627
5, -83.07, 91.96, 230.78, -3098.51, 0.000, 0.000, 0.000, 18:31:17.627
6, -93.36, 102.89, 233.59, -3107.03, 0.000, 0.000, 0.000, 18:31:17.627
7, -115.48, 104.30, 239.86, -3170.31, 0.000, 0.000, 0.000, 18:31:17.642
8, -100.02, 100.08, 235.71, -3146.31, 0.000, 0.000, 0.000, 18:31:17.642
9, -96.16, 83.42, 227.55, -3052.11, 0.000, 0.000, 0.000, 18:31:17.656
10, -92.47, 106.37, 240.25, -3108.65, 0.000, 0.000, 0.000, 18:31:17.657
11, -112.11, 118.87, 235.51, -3183.66, 0.000, 0.000, 0.000, 18:31:17.657
12, -120.75, 96.50, 226.63, -3100.51, 0.000, 0.000, 0.000, 18:31:17.657
13, -94.37, 100.65, 223.49, -3047.63, 0.000, 0.000, 0.000, 18:31:17.672
14, -81.29, 128.33, 224.12, -3156.37, 0.000, 0.000, 0.000, 18:31:17.672
15, -111.11, 137.22, 236.68, -3154.93, 0.000, 0.000, 0.000, 18:31:17.701
16, -102.68, 137.64, 239.74, -3078.81, 0.000, 0.000, 0.000, 18:31:17.702
17, -70.19, 142.43, 237.74, -3030.77, 0.000, 0.000, 0.000, 18:31:17.702
18, -79.82, 169.74, 244.90, -3042.27, 0.000, 0.000, 0.000, 18:31:17.702
19, -95.48, 184.64, 247.33, -3127.62, 0.000, 0.000, 0.000, 18:31:17.703
20, -89.74, 186.98, 239.25, -3060.07, 0.000, 0.000, 0.000, 18:31:17.703
21, -61.81, 206.31, 232.71, -2972.92, 0.000, 0.000, 0.000, 18:31:17.704
22, -57.64, 226.10, 248.78, -3029.28, 0.000, 0.000, 0.000, 18:31:17.704
23, -44.55, 255.58, 248.96, -3183.92, 0.000, 0.000, 0.000, 18:31:17.717
24, -89.35, 228.12, 254.32, -2977.97, 0.000, 0.000, 0.000, 18:31:17.717
25, -54.83, 230.32, 249.20, -2920.49, 0.000, 0.000, 0.000, 18:31:17.732
26, -52.66, 258.08, 251.56, -2976.22, 0.000, 0.000, 0.000, 18:31:17.732
27, -86.66, 266.17, 262.08, -2997.58, 0.000, 0.000, 0.000, 18:31:17.746
28, -79.87, 246.69, 262.22, -2968.00, 0.000, 0.000, 0.000, 18:31:17.746
29, -54.76, 236.93, 247.56, -2955.01, 0.000, 0.000, 0.000, 18:31:17.747
30, -58.32, 256.88, 261.02, -2965.29, 0.000, 0.000, 0.000, 18:31:17.747
31, -67.49, 260.04, 268.63, -3039.71, 0.000, 0.000, 0.000, 18:31:17.762
32, -67.36, 245.51, 256.63, -3010.65, 0.000, 0.000, 0.000, 18:31:17.762
33, -70.39, 235.17, 251.48, -2908.61, 0.000, 0.000, 0.000, 18:31:17.777
34, -66.93, 242.87, 248.44, -3012.30, 0.000, 0.000, 0.000, 18:31:17.777
35, -81.03, 237.20, 257.77, -3071.44, 0.000, 0.000, 0.000, 18:31:17.777
36, -85.08, 217.76, 266.20, -2991.95, 0.000, 0.000, 0.000, 18:31:17.777
37, -67.22, 206.58, 248.61, -2965.67, 0.000, 0.000, 0.000, 18:31:17.792
38, -51.06, 212.39, 249.83, -3057.62, 0.000, 0.000, 0.000, 18:31:17.792
39, -96.73, 210.69, 259.70, -3053.10, 0.000, 0.000, 0.000, 18:31:17.807
40, -94.66, 185.02, 254.31, -3029.72, 0.000, 0.000, 0.000, 18:31:17.807
41, -74.48, 169.19, 234.28, -3011.77, 0.000, 0.000, 0.000, 18:31:17.807
42, -83.29, 180.81, 240.64, -3031.34, 0.000, 0.000, 0.000, 18:31:17.807
43, -101.70, 175.49, 245.95, -3129.35, 0.000, 0.000, 0.000, 18:31:17.822
44, -89.80, 162.65, 242.12, -3105.24, 0.000, 0.000, 0.000, 18:31:17.822
45, -74.82, 152.99, 248.67, -2998.22, 0.000, 0.000, 0.000, 18:31:17.837
46, -87.22, 150.48, 238.88, -3073.39, 0.000, 0.000, 0.000, 18:31:17.837
47, -101.63, 155.07, 243.28, -3150.08, 0.000, 0.000, 0.000, 18:31:17.837
48, -107.50, 130.07, 246.02, -3056.67, 0.000, 0.000, 0.000, 18:31:17.837
49, -83.36, 117.93, 241.25, -3032.59, 0.000, 0.000, 0.000, 18:31:17.852
50, -76.52, 128.55, 235.51, -3134.56, 0.000, 0.000, 0.000, 18:31:17.852
51, -114.49, 121.09, 245.57, -3134.92, 0.000, 0.000, 0.000, 18:31:17.867
52, -113.63, 105.09, 241.33, -3113.45, 0.000, 0.000, 0.000, 18:31:17.867
53, -88.76, 74.32, 219.96, -3106.20, 0.000, 0.000, 0.000, 18:31:17.867
54, -101.23, 82.77, 228.13, -3130.84, 0.000, 0.000, 0.000, 18:31:17.867
55, -123.96, 90.65, 233.00, -3190.62, 0.000, 0.000, 0.000, 18:31:17.882
56, -113.75, 65.07, 219.48, -3212.58, 0.000, 0.000, 0.000, 18:31:17.882
57, -108.74, 35.49, 214.23, -3101.53, 0.000, 0.000, 0.000, 18:31:17.897
58, -111.02, 48.39, 215.49, -3161.32, 0.000, 0.000, 0.000, 18:31:17.897
59, -133.08, 60.57, 223.33, -3208.50, 0.000, 0.000, 0.000, 18:31:17.897
60, -130.91, 34.99, 224.50, -3133.55, 0.000, 0.000, 0.000, 18:31:17.897
61, -109.77, 23.40, 219.27, -3086.99, 0.000, 0.000, 0.000, 18:31:17.912
62, -97.77, 35.84, 212.35, -3205.39, 0.000, 0.000, 0.000, 18:31:17.912
63, -128.44, 38.28, 225.94, -3239.05, 0.000, 0.000, 0.000, 18:31:17.926
64, -132.81, 10.42, 215.16, -3184.58, 0.000, 0.000, 0.000, 18:31:17.927
65, -115.43, 1.02, 206.37, -3168.19, 0.000, 0.000, 0.000, 18:31:17.927
66, -124.73, 11.94, 200.81, -3174.63, 0.000, 0.000, 0.000, 18:31:17.927
67, -132.68, 25.07, 222.21, -3251.74, 0.000, 0.000, 0.000, 18:31:17.942
68, -118.73, 18.23, 216.83, -3193.37, 0.000, 0.000, 0.000, 18:31:17.942
69, -118.25, 4.08, 219.08, -3086.17, 0.000, 0.000, 0.000, 18:31:17.957
70, -120.82, 19.12, 217.03, -3147.61, 0.000, 0.000, 0.000, 18:31:17.957
71, -134.48, 28.31, 227.58, -3216.35, 0.000, 0.000, 0.000, 18:31:17.957
72, -139.60, 13.41, 223.25, -3129.29, 0.000, 0.000, 0.000, 18:31:17.957
73, -118.31, 2.68, 215.74, -3111.15, 0.000, 0.000, 0.000, 18:31:17.972
74, -106.95, 21.73, 207.31, -3199.01, 0.000, 0.000, 0.000, 18:31:17.972
75, -145.58, 30.26, 220.15, -3185.63, 0.000, 0.000, 0.000, 18:31:17.986
76, -137.35, 18.10, 223.47, -3170.47, 0.000, 0.000, 0.000, 18:31:17.987
77, -96.71, 19.84, 212.27, -3182.57, 0.000, 0.000, 0.000, 18:31:17.987
78, -103.31, 34.79, 222.57, -3144.55, 0.000, 0.000, 0.000, 18:31:17.987
79, -127.81, 36.57, 224.94, -3250.15, 0.000, 0.000, 0.000, 18:31:18.016
80, -118.41, 31.22, 219.46, -3206.57, 0.000, 0.000, 0.000, 18:31:18.016
81, -104.23, 18.39, 219.66, -3109.78, 0.000, 0.000, 0.000, 18:31:18.017
82, -98.95, 33.59, 222.60, -3170.10, 0.000, 0.000, 0.000, 18:31:18.017
83, -131.65, 45.69, 230.94, -3206.94, 0.000, 0.000, 0.000, 18:31:18.018
84, -123.34, 31.31, 230.32, -3153.77, 0.000, 0.000, 0.000, 18:31:18.018
85, -109.09, 26.02, 217.10, -3121.72, 0.000, 0.000, 0.000, 18:31:18.032
86, -80.57, 42.45, 208.97, -3293.95, 0.000, 0.000, 0.000, 18:31:18.032
87, -133.76, 47.46, 227.80, -3212.95, 0.000, 0.000, 0.000, 18:31:18.047
88, -131.61, 37.87, 224.69, -3159.73, 0.000, 0.000, 0.000, 18:31:18.047
89, -102.84, 34.59, 213.78, -3129.69, 0.000, 0.000, 0.000, 18:31:18.047
90, -109.24, 48.47, 221.07, -3143.92, 0.000, 0.000, 0.000, 18:31:18.047
91, -123.21, 61.38, 228.78, -3221.50, 0.000, 0.000, 0.000, 18:31:18.062
92, -119.16, 49.73, 216.23, -3209.14, 0.000, 0.000, 0.000, 18:31:18.062
93, -107.07, 39.93, 217.10, -3122.95, 0.000, 0.000, 0.000, 18:31:18.076
94, -105.46, 53.27, 211.71, -3163.48, 0.000, 0.000, 0.000, 18:31:18.076
95, -124.57, 54.16, 217.71, -3242.60, 0.000, 0.000, 0.000, 18:31:18.077
96, -132.37, 47.24, 227.96, -3143.52, 0.000, 0.000, 0.000, 18:31:18.077
97, -113.23, 34.89, 212.28, -3094.76, 0.000, 0.000, 0.000, 18:31:18.092
98, -101.62, 58.02, 209.96, -3193.58, 0.000, 0.000, 0.000, 18:31:18.092
99, -128.64, 62.77, 225.90, -3178.92, 0.000, 0.000, 0.000, 18:31:18.107
100, -124.46, 52.37, 235.16, -3137.94, 0.000, 0.000, 0.000, 18:31:18.107
101, -105.43, 51.54, 220.84, -3109.77, 0.000, 0.000, 0.000, 18:31:18.107
102, -109.03, 62.66, 225.55, -3113.46, 0.000, 0.000, 0.000, 18:31:18.107
103, -128.31, 71.17, 236.16, -3164.67, 0.000, 0.000, 0.000, 18:31:18.122
104, -113.96, 61.59, 233.58, -3169.35, 0.000, 0.000, 0.000, 18:31:18.122
105, -105.07, 57.95, 225.22, -3080.31, 0.000, 0.000, 0.000, 18:31:18.137
106, -99.60, 67.92, 223.23, -3137.73, 0.000, 0.000, 0.000, 18:31:18.137
107, -122.81, 73.88, 228.28, -3197.77, 0.000, 0.000, 0.000, 18:31:18.137
108, -127.79, 62.78, 230.17, -3108.61, 0.000, 0.000, 0.000, 18:31:18.137
109, -106.13, 47.83, 218.04, -3063.41, 0.000, 0.000, 0.000, 18:31:18.152
110, -93.20, 75.12, 224.10, -3167.54, 0.000, 0.000, 0.000, 18:31:18.152
111, -125.83, 84.34, 238.79, -3155.55, 0.000, 0.000, 0.000, 18:31:18.166
112, -126.40, 71.38, 235.65, -3124.77, 0.000, 0.000, 0.000, 18:31:18.166
113, -102.49, 59.94, 220.78, -3113.51, 0.000, 0.000, 0.000, 18:31:18.167
114, -104.14, 74.16, 225.22, -3129.57, 0.000, 0.000, 0.000, 18:31:18.167
115, -123.49, 84.78, 229.49, -3193.35, 0.000, 0.000, 0.000, 18:31:18.182
116, -110.05, 79.07, 233.43, -3168.76, 0.000, 0.000, 0.000, 18:31:18.182
117, -107.93, 60.13, 228.41, -3066.52, 0.000, 0.000, 0.000, 18:31:18.197
118, -100.64, 77.32, 224.97, -3148.89, 0.000, 0.000, 0.000, 18:31:18.197
119, -122.32, 85.92, 225.76, -3214.14, 0.000, 0.000, 0.000, 18:31:18.197
120, -123.63, 72.41, 240.21, -3111.44, 0.000, 0.000, 0.000, 18:31:18.197
121, -103.74, 63.68, 224.91, -3090.94, 0.000, 0.000, 0.000, 18:31:18.212
122, -90.30, 82.01, 218.84, -3169.97, 0.000, 0.000, 0.000, 18:31:18.212
123, -127.93, 78.14, 219.65, -3202.06, 0.000, 0.000, 0.000, 18:31:18.227
124, -126.77, 66.17, 222.71, -3135.59, 0.000, 0.000, 0.000, 18:31:18.227
125, -98.05, 70.11, 219.33, -3091.30, 0.000, 0.000, 0.000, 18:31:18.227
126, -98.49, 83.87, 231.02, -3106.19, 0.000, 0.000, 0.000, 18:31:18.227
127, -120.20, 86.15, 235.03, -3164.45, 0.000, 0.000, 0.000, 18:31:18.242
128, -107.98, 70.50, 232.33, -3161.40, 0.000, 0.000, 0.000, 18:31:18.242
129, -105.66, 51.27, 229.44, -3056.68, 0.000, 0.000, 0.000, 18:31:18.257
130, -116.59, 75.71, 214.46, -3124.63, 0.000, 0.000, 0.000, 18:31:18.257
131, -130.23, 82.99, 217.30, -3194.30, 0.000, 0.000, 0.000, 18:31:18.257
132, -130.17, 76.03, 218.63, -3137.55, 0.000, 0.000, 0.000, 18:31:18.257
133, -107.74, 58.03, 211.48, -3089.67, 0.000, 0.000, 0.000, 18:31:18.272
134, -91.25, 86.54, 218.76, -3163.16, 0.000, 0.000, 0.000, 18:31:18.274
135, -120.39, 85.53, 230.02, -3194.41, 0.000, 0.000, 0.000, 18:31:18.287
136, -117.55, 77.28, 231.74, -3141.79, 0.000, 0.000, 0.000, 18:31:18.287
137, -90.61, 71.03, 222.86, -3102.36, 0.000, 0.000, 0.000, 18:31:18.287
138, -95.24, 84.56, 228.38, -3119.94, 0.000, 0.000, 0.000, 18:31:18.287
139, -108.43, 101.35, 244.32, -3180.61, 0.000, 0.000, 0.000, 18:31:18.302
140, -106.91, 85.30, 229.73, -3186.38, 0.000, 0.000, 0.000, 18:31:18.302
141, -95.46, 69.07, 223.71, -3083.63, 0.000, 0.000, 0.000, 18:31:18.316
142, -97.78, 82.49, 226.84, -3135.09, 0.000, 0.000, 0.000, 18:31:18.316
143, -116.89, 90.99, 227.41, -3219.71, 0.000, 0.000, 0.000, 18:31:18.317
144, -121.16, 79.85, 227.98, -3141.61, 0.000, 0.000, 0.000, 18:31:18.317
145, -99.08, 76.12, 224.31, -3087.81, 0.000, 0.000, 0.000, 18:31:18.347
146, -83.86, 92.30, 218.65, -3162.22, 0.000, 0.000, 0.000, 18:31:18.347
147, -114.23, 96.21, 237.87, -3169.99, 0.000, 0.000, 0.000, 18:31:18.347
148, -120.81, 73.82, 232.24, -3133.02, 0.000, 0.000, 0.000, 18:31:18.347
149, -95.91, 70.93, 231.59, -3059.04, 0.000, 0.000, 0.000, 18:31:18.348
150, -105.13, 82.44, 226.65, -3094.16, 0.000, 0.000, 0.000, 18:31:18.348
151, -118.38, 97.24, 240.51, -3160.77, 0.000, 0.000, 0.000, 18:31:18.362
152, -90.94, 92.64, 229.08, -3223.61, 0.000, 0.000, 0.000, 18:31:18.362
153, -95.44, 79.89, 234.46, -3051.50, 0.000, 0.000, 0.000, 18:31:18.377
154, -88.58, 94.31, 238.09, -3134.71, 0.000, 0.000, 0.000, 18:31:18.377
155, -113.04, 98.35, 230.72, -3221.18, 0.000, 0.000, 0.000, 18:31:18.377
156, -123.47, 77.03, 227.07, -3133.60, 0.000, 0.000, 0.000, 18:31:18.377
157, -93.29, 78.70, 226.30, -3099.83, 0.000, 0.000, 0.000, 18:31:18.392
158, -87.01, 91.10, 220.15, -3147.28, 0.000, 0.000, 0.000, 18:31:18.392
159, -127.01, 95.26, 232.07, -3150.61, 0.000, 0.000, 0.000, 18:31:18.407
160, -116.37, 84.69, 239.32, -3124.19, 0.000, 0.000, 0.000, 18:31:18.407
161, -91.07, 80.69, 225.51, -3092.58, 0.000, 0.000, 0.000, 18:31:18.407
162, -97.99, 87.81, 231.15, -3097.75, 0.000, 0.000, 0.000, 18:31:18.407
163, -114.98, 95.51, 237.11, -3162.22, 0.000, 0.000, 0.000, 18:31:18.422
164, -106.83, 89.38, 233.43, -3153.43, 0.000, 0.000, 0.000, 18:31:18.422
165, -98.39, 75.04, 231.28, -3052.56, 0.000, 0.000, 0.000, 18:31:18.437
166, -96.63, 87.06, 231.76, -3103.57, 0.000, 0.000, 0.000, 18:31:18.437
167, -113.65, 95.02, 233.72, -3186.37, 0.000, 0.000, 0.000, 18:31:18.437
168, -123.00, 75.06, 234.98, -3108.70, 0.000, 0.000, 0.000, 18:31:18.437
169, -95.50, 75.50, 234.76, -3075.76, 0.000, 0.000, 0.000, 18:31:18.452
170, -78.71, 93.14, 233.78, -3158.11, 0.000, 0.000, 0.000, 18:31:18.452
171, -113.08, 99.73, 241.48, -3155.77, 0.000, 0.000, 0.000, 18:31:18.467
172, -125.84, 81.54, 237.05, -3101.30, 0.000, 0.000, 0.000, 18:31:18.467
173, -96.25, 79.20, 228.45, -3057.36, 0.000, 0.000, 0.000, 18:31:18.467
174, -97.53, 92.85, 232.76, -3088.07, 0.000, 0.000, 0.000, 18:31:18.467
175, -115.66, 103.50, 240.94, -3158.52, 0.000, 0.000, 0.000, 18:31:18.482
176, -108.06, 85.55, 229.07, -3174.38, 0.000, 0.000, 0.000, 18:31:18.482
177, -94.58, 76.20, 229.52, -3079.27, 0.000, 0.000, 0.000, 18:31:18.496
178, -91.70, 89.58, 224.70, -3137.36, 0.000, 0.000, 0.000, 18:31:18.496
179, -114.20, 92.85, 233.27, -3191.66, 0.000, 0.000, 0.000, 18:31:18.497
180, -115.86, 78.01, 241.32, -3103.40, 0.000, 0.000, 0.000, 18:31:18.497
181, -89.84, 74.00, 238.65, -3073.50, 0.000, 0.000, 0.000, 18:31:18.512
182, -77.27, 106.98, 226.79, -3148.67, 0.000, 0.000, 0.000, 18:31:18.512
183, -103.55, 115.09, 243.01, -3183.03, 0.000, 0.000, 0.000, 18:31:18.527
184, -108.37, 87.05, 234.23, -3166.47, 0.000, 0.000, 0.000, 18:31:18.527
185, -96.26, 72.04, 222.04, -3095.35, 0.000, 0.000, 0.000, 18:31:18.527
186, -90.20, 97.51, 236.85, -3094.84, 0.000, 0.000, 0.000, 18:31:18.527
187, -109.85, 97.56, 238.70, -3171.98, 0.000, 0.000, 0.000, 18:31:18.542
188, -106.87, 88.59, 231.37, -3172.15, 0.000, 0.000, 0.000, 18:31:18.542
189, -96.18, 76.98, 228.40, -3072.46, 0.000, 0.000, 0.000, 18:31:18.557
190, -91.73, 86.76, 230.06, -3122.83, 0.000, 0.000, 0.000, 18:31:18.557
191, -110.26, 95.10, 229.59, -3207.97, 0.000, 0.000, 0.000, 18:31:18.557
192, -124.19, 82.34, 231.91, -3124.33, 0.000, 0.000, 0.000, 18:31:18.557
193, -96.89, 72.39, 225.74, -3083.54, 0.000, 0.000, 0.000, 18:31:18.572
194, -88.31, 81.60, 216.80, -3182.16, 0.000, 0.000, 0.000, 18:31:18.572
195, -116.68, 95.42, 237.18, -3198.50, 0.000, 0.000, 0.000, 18:31:18.587
196, -121.31, 75.48, 227.40, -3141.81, 0.000, 0.000, 0.000, 18:31:18.587
197, -102.51, 65.23, 216.73, -3108.78, 0.000, 0.000, 0.000, 18:31:18.587
198, -99.02, 81.62, 220.48, -3138.76, 0.000, 0.000, 0.000, 18:31:18.587
199, -122.84, 85.21, 225.63, -3186.90, 0.000, 0.000, 0.000, 18:31:18.602
200, -103.40, 91.70, 233.66, -3189.87, 0.000, 0.000, 0.000, 18:31:18.602
0, -104.40, 71.15, 220.07, -3077.71, 0.000, 0.000, 0.000, 18:31:18.602
1, -91.26, 86.02, 227.10, -3135.28, 0.000, 0.000, 0.000, 18:31:18.617
2, -113.65, 94.13, 224.54, -3243.64, 0.000, 0.000, 0.000, 18:31:18.617
3, -128.23, 76.72, 227.04, -3132.14, 0.000, 0.000, 0.000, 18:31:18.632
4, -104.90, 75.59, 222.02, -3055.67, 0.000, 0.000, 0.000, 18:31:18.632
5, -94.35, 93.44, 223.12, -3153.53, 0.000, 0.000, 0.000, 18:31:18.632
6, -117.91, 99.65, 231.44, -3157.37, 0.000, 0.000, 0.000, 18:31:18.632
7, -124.63, 83.74, 231.55, -3134.94, 0.000, 0.000, 0.000, 18:31:18.662
8, -90.79, 76.45, 216.01, -3140.53, 0.000, 0.000, 0.000, 18:31:18.666
9, -108.98, 76.10, 210.51, -3128.03, 0.000, 0.000, 0.000, 18:31:18.666
10, -110.94, 97.63, 237.32, -3205.37, 0.000, 0.000, 0.000, 18:31:18.666
11, -106.96, 92.74, 239.72, -3155.46, 0.000, 0.000, 0.000, 18:31:18.666
12, -92.79, 81.84, 231.30, -3070.17, 0.000, 0.000, 0.000, 18:31:18.666
13, -95.34, 89.10, 222.59, -3132.88, 0.000, 0.000, 0.000, 18:31:18.677
14, -88.62, 100.55, 221.37, -3282.76, 0.000, 0.000, 0.000, 18:31:18.677
15, -129.02, 79.88, 227.50, -3139.92, 0.000, 0.000, 0.000, 18:31:18.692
16, -97.86, 76.21, 224.33, -3081.60, 0.000, 0.000, 0.000, 18:31:18.692
17, -87.86, 90.74, 224.33, -3152.39, 0.000, 0.000, 0.000, 18:31:18.692
18, -110.56, 93.84, 239.32, -3202.54, 0.000, 0.000, 0.000, 18:31:18.692
19, -107.82, 83.00, 232.96, -3175.45, 0.000, 0.000, 0.000, 18:31:18.707
20, -80.94, 82.62, 225.13, -3119.02, 0.000, 0.000, 0.000, 18:31:18.707
21, -88.74, 86.62, 233.93, -3081.64, 0.000, 0.000, 0.000, 18:31:18.721
22, -107.50, 95.41, 244.67, -3192.81, 0.000, 0.000, 0.000, 18:31:18.722
23, -107.59, 83.79, 236.63, -3165.46, 0.000, 0.000, 0.000, 18:31:18.722
24, -92.70, 82.26, 238.24, -3067.64, 0.000, 0.000, 0.000, 18:31:18.722
25, -91.80, 87.54, 230.74, -3127.89, 0.000, 0.000, 0.000, 18:31:18.737
26, -94.07, 96.03, 240.88, -3232.32, 0.000, 0.000, 0.000, 18:31:18.737
27, -124.45, 82.64, 235.03, -3127.21, 0.000, 0.000, 0.000, 18:31:18.752
28, -97.22, 82.93, 223.05, -3077.85, 0.000, 0.000, 0.000, 18:31:18.752
29, -89.95, 88.91, 222.81, -3124.00, 0.000, 0.000, 0.000, 18:31:18.752
30, -116.26, 99.55, 236.96, -3157.90, 0.000, 0.000, 0.000, 18:31:18.752
31, -117.91, 92.56, 238.30, -3125.85, 0.000, 0.000, 0.000, 18:31:18.767
32, -85.97, 89.13, 228.10, -3099.59, 0.000, 0.000, 0.000, 18:31:18.767
33, -101.61, 86.16, 229.60, -3103.05, 0.000, 0.000, 0.000, 18:31:18.782
34, -114.48, 96.84, 235.77, -3166.97, 0.000, 0.000, 0.000, 18:31:18.782
35, -118.37, 90.71, 237.83, -3134.09, 0.000, 0.000, 0.000, 18:31:18.782
36, -104.28, 71.02, 225.99, -3039.50, 0.000, 0.000, 0.000, 18:31:18.782
37, -95.64, 92.66, 232.46, -3088.75, 0.000, 0.000, 0.000, 18:31:18.797
38, -111.87, 98.85, 229.09, -3203.02, 0.000, 0.000, 0.000, 18:31:18.797
39, -128.27, 83.93, 226.35, -3126.78, 0.000, 0.000, 0.000, 18:31:18.812
40, -103.64, 74.71, 225.83, -3051.88, 0.000, 0.000, 0.000, 18:31:18.812
41, -102.34, 89.26, 216.76, -3125.79, 0.000, 0.000, 0.000, 18:31:18.812
42, -118.87, 104.09, 237.89, -3149.78, 0.000, 0.000, 0.000, 18:31:18.812
43, -116.22, 86.51, 236.59, -3140.48, 0.000, 0.000, 0.000, 18:31:18.827
44, -91.16, 81.40, 220.89, -3098.46, 0.000, 0.000, 0.000, 18:31:18.827
45, -95.75, 84.60, 226.57, -3100.97, 0.000, 0.000, 0.000, 18:31:18.842
46, -109.64, 97.61, 239.14, -3171.82, 0.000, 0.000, 0.000, 18:31:18.842
47, -115.82, 85.99, 229.60, -3158.01, 0.000, 0.000, 0.000, 18:31:18.842
48, -112.94, 64.90, 212.87, -3069.61, 0.000, 0.000, 0.000, 18:31:18.842
49, -89.74, 93.06, 227.54, -3089.89, 0.000, 0.000, 0.000, 18:31:18.857
50, -111.72, 102.02, 229.41, -3193.24, 0.000, 0.000, 0.000, 18:31:18.857
51, -132.01, 78.27, 227.64, -3129.74, 0.000, 0.000, 0.000, 18:31:18.872
52, -99.03, 74.46, 226.68, -3074.93, 0.000, 0.000, 0.000, 18:31:18.872
53, -88.61, 96.87, 229.95, -3113.33, 0.000, 0.000, 0.000, 18:31:18.872
54, -108.84, 105.94, 250.96, -3146.09, 0.000, 0.000, 0.000, 18:31:18.872
55, -114.13, 90.27, 237.73, -3121.55, 0.000, 0.000, 0.000, 18:31:18.887
56, -84.47, 90.22, 225.89, -3090.30, 0.000, 0.000, 0.000, 18:31:18.887
57, -90.03, 97.05, 231.36, -3102.17, 0.000, 0.000, 0.000, 18:31:18.901
58, -110.27, 104.27, 235.75, -3184.00, 0.000, 0.000, 0.000, 18:31:18.901
59, -119.43, 88.81, 231.88, -3166.33, 0.000, 0.000, 0.000, 18:31:18.902
60, -97.78, 85.96, 226.92, -3072.61, 0.000, 0.000, 0.000, 18:31:18.902
61, -83.76, 102.04, 236.37, -3108.06, 0.000, 0.000, 0.000, 18:31:18.917
62, -96.70, 107.50, 233.08, -3207.23, 0.000, 0.000, 0.000, 18:31:18.917
63, -121.74, 83.17, 232.55, -3115.32, 0.000, 0.000, 0.000, 18:31:18.932
64, -98.90, 72.82, 225.04, -3066.05, 0.000, 0.000, 0.000, 18:31:18.932
65, -88.29, 91.68, 229.93, -3123.73, 0.000, 0.000, 0.000, 18:31:18.932
66, -120.81, 95.55, 236.39, -3155.32, 0.000, 0.000, 0.000, 18:31:18.932
67, -122.29, 86.34, 237.22, -3125.51, 0.000, 0.000, 0.000, 18:31:18.947
68, -82.11, 87.58, 233.30, -3098.61, 0.000, 0.000, 0.000, 18:31:18.947
69, -92.71, 90.07, 230.69, -3094.45, 0.000, 0.000, 0.000, 18:31:18.977
70, -110.67, 97.25, 233.21, -3189.30, 0.000, 0.000, 0.000, 18:31:18.977
71, -103.54, 94.68, 239.83, -3148.31, 0.000, 0.000, 0.000, 18:31:18.977
72, -97.22, 73.66, 225.77, -3078.02, 0.000, 0.000, 0.000, 18:31:18.977
73, -89.67, 88.48, 227.78, -3112.45, 0.000, 0.000, 0.000, 18:31:18.978
74, -112.89, 93.90, 227.93, -3185.89, 0.000, 0.000, 0.000, 18:31:18.978
75, -120.35, 78.66, 223.12, -3146.49, 0.000, 0.000, 0.000, 18:31:18.979
76, -98.39, 72.97, 217.35, -3110.60, 0.000, 0.000, 0.000, 18:31:18.979
77, -59.81, 103.62, 208.20, -3228.93, 0.000, 0.000, 0.000, 18:31:18.992
78, -129.38, 101.76, 234.62, -3139.55, 0.000, 0.000, 0.000, 18:31:18.992
79, -131.34, 80.79, 226.78, -3124.98, 0.000, 0.000, 0.000, 18:31:19.007
80, -104.61, 71.80, 216.05, -3070.48, 0.000, 0.000, 0.000, 18:31:19.007
81, -97.40, 88.23, 225.04, -3093.87, 0.000, 0.000, 0.000, 18:31:19.022
82, -120.67, 86.32, 224.03, -3198.34, 0.000, 0.000, 0.000, 18:31:19.022
83, -120.10, 89.43, 229.19, -3144.21, 0.000, 0.000, 0.000, 18:31:19.022
84, -99.75, 79.76, 227.37, -3052.83, 0.000, 0.000, 0.000, 18:31:19.022
85, -102.91, 80.39, 217.45, -3112.75, 0.000, 0.000, 0.000, 18:31:19.037
86, -110.85, 94.06, 225.92, -3225.07, 0.000, 0.000, 0.000, 18:31:19.037
87, -130.18, 80.64, 228.05, -3115.52, 0.000, 0.000, 0.000, 18:31:19.051
88, -100.13, 81.73, 229.75, -3033.07, 0.000, 0.000, 0.000, 18:31:19.052
89, -80.61, 94.17, 234.27, -3117.28, 0.000, 0.000, 0.000, 18:31:19.052
90, -110.02, 104.90, 241.65, -3141.44, 0.000, 0.000, 0.000, 18:31:19.052
91, -118.74, 85.70, 233.90, -3132.54, 0.000, 0.000, 0.000, 18:31:19.067
92, -90.25, 82.32, 226.86, -3093.42, 0.000, 0.000, 0.000, 18:31:19.067
93, -96.80, 90.02, 226.97, -3074.99, 0.000, 0.000, 0.000, 18:31:19.082
94, -113.84, 100.35, 233.27, -3178.84, 0.000, 0.000, 0.000, 18:31:19.082
95, -116.14, 83.72, 232.80, -3153.61, 0.000, 0.000, 0.000, 18:31:19.082
96, -96.16, 78.55, 234.27, -3069.88, 0.000, 0.000, 0.000, 18:31:19.082
97, -89.92, 91.05, 228.05, -3115.64, 0.000, 0.000, 0.000, 18:31:19.097
98, -111.88, 95.01, 223.75, -3216.59, 0.000, 0.000, 0.000, 18:31:19.097
99, -116.68, 87.45, 236.55, -3124.81, 0.000, 0.000, 0.000, 18:31:19.112
100, -95.78, 79.41, 229.56, -3075.78, 0.000, 0.000, 0.000, 18:31:19.112
101, -85.59, 85.71, 216.66, -3138.41, 0.000, 0.000, 0.000, 18:31:19.112
102, -108.25, 100.87, 238.34, -3157.64, 0.000, 0.000, 0.000, 18:31:19.112
103, -114.52, 83.39, 236.99, -3137.53, 0.000, 0.000, 0.000, 18:31:19.127
104, -87.57, 70.15, 223.09, -3132.55, 0.000, 0.000, 0.000, 18:31:19.127
105, -91.39, 85.01, 230.61, -3101.10, 0.000, 0.000, 0.000, 18:31:19.142
106, -117.59, 90.86, 231.65, -3184.32, 0.000, 0.000, 0.000, 18:31:19.142
107, -114.99, 85.08, 230.87, -3170.40, 0.000, 0.000, 0.000, 18:31:19.142
108, -97.88, 79.23, 227.03, -3065.26, 0.000, 0.000, 0.000, 18:31:19.142
109, -97.88, 90.94, 230.25, -3084.60, 0.000, 0.000, 0.000, 18:31:19.157
110, -100.47, 103.31, 235.71, -3201.58, 0.000, 0.000, 0.000, 18:31:19.157
111, -118.80, 85.18, 236.23, -3124.18, 0.000, 0.000, 0.000, 18:31:19.172
112, -100.94, 72.95, 225.45, -3076.36, 0.000, 0.000, 0.000, 18:31:19.172
113, -90.23, 86.08, 217.24, -3136.68, 0.000, 0.000, 0.000, 18:31:19.172
114, -115.92, 100.09, 237.00, -3154.83, 0.000, 0.000, 0.000, 18:31:19.172
115, -110.38, 97.16, 247.51, -3121.53, 0.000, 0.000, 0.000, 18:31:19.187
116, -89.23, 83.58, 225.69, -3087.86, 0.000, 0.000, 0.000, 18:31:19.187
117, -97.47, 86.05, 231.54, -3082.04, 0.000, 0.000, 0.000, 18:31:19.201
118, -115.29, 95.25, 233.96, -3179.42, 0.000, 0.000, 0.000, 18:31:19.202
119, -117.77, 85.87, 228.40, -3164.88, 0.000, 0.000, 0.000, 18:31:19.202
120, -106.72, 77.33, 222.54, -3068.28, 0.000, 0.000, 0.000, 18:31:19.202
121, -90.69, 89.91, 223.41, -3120.76, 0.000, 0.000, 0.000, 18:31:19.217
122, -97.47, 110.84, 236.95, -3214.07, 0.000, 0.000, 0.000, 18:31:19.217
123, -116.11, 86.61, 237.14, -3132.52, 0.000, 0.000, 0.000, 18:31:19.232
124, -105.24, 72.46, 222.48, -3070.48, 0.000, 0.000, 0.000, 18:31:19.232
125, -94.90, 92.71, 222.44, -3109.97, 0.000, 0.000, 0.000, 18:31:19.232
126, -119.44, 98.04, 235.18, -3166.58, 0.000, 0.000, 0.000, 18:31:19.232
127, -122.51, 86.76, 238.27, -3137.76, 0.000, 0.000, 0.000, 18:31:19.247
128, -88.03, 83.03, 223.97, -3094.82, 0.000, 0.000, 0.000, 18:31:19.247
129, -94.49, 92.33, 229.95, -3081.57, 0.000, 0.000, 0.000, 18:31:19.262
130, -110.42, 98.74, 237.06, -3168.10, 0.000, 0.000, 0.000, 18:31:19.262
131, -116.06, 92.63, 229.98, -3138.53, 0.000, 0.000, 0.000, 18:31:19.262
132, -100.58, 78.51, 228.18, -3060.61, 0.000, 0.000, 0.000, 18:31:19.262
133, -90.85, 87.86, 228.75, -3098.92, 0.000, 0.000, 0.000, 18:31:19.277
134, -105.81, 104.30, 232.72, -3192.95, 0.000, 0.000, 0.000, 18:31:19.277
135, -116.04, 87.28, 239.26, -3128.05, 0.000, 0.000, 0.000, 18:31:19.307
136, -95.04, 82.08, 234.78, -3057.31, 0.000, 0.000, 0.000, 18:31:19.307
137, -86.62, 95.35, 232.49, -3101.56, 0.000, 0.000, 0.000, 18:31:19.307
138, -116.78, 96.12, 235.18, -3137.54, 0.000, 0.000, 0.000, 18:31:19.307
139, -119.33, 89.25, 234.28, -3141.52, 0.000, 0.000, 0.000, 18:31:19.308
140, -101.32, 76.46, 228.32, -3057.94, 0.000, 0.000, 0.000, 18:31:19.308
141, -94.62, 92.03, 226.22, -3092.72, 0.000, 0.000, 0.000, 18:31:19.309
142, -107.74, 98.20, 238.09, -3174.19, 0.000, 0.000, 0.000, 18:31:19.309
143, -78.43, 105.28, 228.98, -3249.30, 0.000, 0.000, 0.000, 18:31:19.322
144, -106.62, 81.68, 236.22, -3034.37, 0.000, 0.000, 0.000, 18:31:19.322
145, -90.27, 81.86, 224.27, -3101.64, 0.000, 0.000, 0.000, 18:31:19.337
146, -93.06, 108.70, 247.72, -3184.45, 0.000, 0.000, 0.000, 18:31:19.337
147, -109.42, 89.64, 241.13, -3129.26, 0.000, 0.000, 0.000, 18:31:19.352
148, -87.89, 79.99, 226.40, -3076.04, 0.000, 0.000, 0.000, 18:31:19.352
149, -86.28, 86.55, 222.02, -3118.17, 0.000, 0.000, 0.000, 18:31:19.352
150, -116.52, 99.55, 231.80, -3168.01, 0.000, 0.000, 0.000, 18:31:19.352
151, -116.67, 84.03, 228.25, -3165.04, 0.000, 0.000, 0.000, 18:31:19.367
152, -89.60, 80.10, 210.71, -3114.92, 0.000, 0.000, 0.000, 18:31:19.367
153, -96.88, 89.54, 225.71, -3081.72, 0.000, 0.000, 0.000, 18:31:19.381
154, -118.03, 100.68, 235.91, -3161.27, 0.000, 0.000, 0.000, 18:31:19.382
155, -115.27, 88.04, 229.38, -3153.43, 0.000, 0.000, 0.000, 18:31:19.382
156, -104.54, 75.14, 223.70, -3039.61, 0.000, 0.000, 0.000, 18:31:19.382
157, -102.32, 85.98, 225.94, -3088.82, 0.000, 0.000, 0.000, 18:31:19.397
158, -101.52, 100.58, 229.28, -3214.26, 0.000, 0.000, 0.000, 18:31:19.397
159, -115.85, 93.11, 230.86, -3161.98, 0.000, 0.000, 0.000, 18:31:19.412
160, -94.34, 73.51, 225.46, -3091.23, 0.000, 0.000, 0.000, 18:31:19.412
161, -87.40, 89.45, 221.87, -3102.70, 0.000, 0.000, 0.000, 18:31:19.412
162, -123.12, 97.00, 231.44, -3138.31, 0.000, 0.000, 0.000, 18:31:19.412
163, -124.54, 91.14, 239.59, -3112.03, 0.000, 0.000, 0.000, 18:31:19.427
164, -94.86, 77.84, 224.15, -3106.39, 0.000, 0.000, 0.000, 18:31:19.427
165, -108.65, 81.11, 220.95, -3081.20, 0.000, 0.000, 0.000, 18:31:19.441
166, -116.28, 94.16, 233.32, -3164.03, 0.000, 0.000, 0.000, 18:31:19.442
167, -118.83, 86.10, 233.43, -3136.49, 0.000, 0.000, 0.000, 18:31:19.442
168, -105.38, 76.74, 230.41, -3037.51, 0.000, 0.000, 0.000, 18:31:19.442
169, -93.49, 89.01, 230.12, -3104.86, 0.000, 0.000, 0.000, 18:31:19.457
170, -104.75, 99.40, 223.62, -3206.15, 0.000, 0.000, 0.000, 18:31:19.457
171, -119.91, 85.84, 233.93, -3141.12, 0.000, 0.000, 0.000, 18:31:19.471
172, -96.02, 76.61, 222.56, -3091.84, 0.000, 0.000, 0.000, 18:31:19.472
173, -76.64, 93.12, 226.39, -3120.57, 0.000, 0.000, 0.000, 18:31:19.472
174, -117.36, 94.64, 237.66, -3139.76, 0.000, 0.000, 0.000, 18:31:19.472
175, -118.30, 88.48, 236.75, -3145.45, 0.000, 0.000, 0.000, 18:31:19.487
176, -86.78, 84.46, 225.11, -3110.93, 0.000, 0.000, 0.000, 18:31:19.487
177, -93.55, 89.28, 228.92, -3095.84, 0.000, 0.000, 0.000, 18:31:19.501
178, -113.15, 99.86, 237.08, -3171.18, 0.000, 0.000, 0.000, 18:31:19.501
179, -117.12, 93.04, 236.10, -3136.13, 0.000, 0.000, 0.000, 18:31:19.502
180, -101.10, 77.17, 230.29, -3063.57, 0.000, 0.000, 0.000, 18:31:19.502
181, -89.24, 82.23, 232.60, -3099.34, 0.000, 0.000, 0.000, 18:31:19.517
182, -95.33, 111.42, 237.72, -3197.68, 0.000, 0.000, 0.000, 18:31:19.517
183, -117.59, 87.99, 238.72, -3118.68, 0.000, 0.000, 0.000, 18:31:19.532
184, -88.98, 79.81, 232.27, -3069.98, 0.000, 0.000, 0.000, 18:31:19.532
185, -87.92, 92.73, 227.63, -3114.90, 0.000, 0.000, 0.000, 18:31:19.532
186, -111.81, 109.23, 240.45, -3130.06, 0.000, 0.000, 0.000, 18:31:19.532
187, -109.52, 100.54, 243.91, -3129.40, 0.000, 0.000, 0.000, 18:31:19.547
188, -85.40, 86.11, 226.92, -3125.03, 0.000, 0.000, 0.000, 18:31:19.547
189, -94.14, 100.13, 233.41, -3082.70, 0.000, 0.000, 0.000, 18:31:19.562
190, -121.25, 96.62, 230.92, -3158.39, 0.000, 0.000, 0.000, 18:31:19.562
191, -116.09, 93.09, 234.21, -3153.64, 0.000, 0.000, 0.000, 18:31:19.562
192, -104.42, 81.05, 227.39, -3054.11, 0.000, 0.000, 0.000, 18:31:19.562
193, -94.67, 89.95, 222.18, -3092.06, 0.000, 0.000, 0.000, 18:31:19.577
194, -109.08, 106.16, 224.21, -3203.00, 0.000, 0.000, 0.000, 18:31:19.577
195, -140.28, 81.56, 231.17, -3094.63, 0.000, 0.000, 0.000, 18:31:19.592
196, -103.79, 81.08, 229.54, -3044.64, 0.000, 0.000, 0.000, 18:31:19.592
197, -89.73, 88.10, 224.21, -3112.35, 0.000, 0.000, 0.000, 18:31:19.592
198, -118.61, 101.60, 233.10, -3142.59, 0.000, 0.000, 0.000, 18:31:19.592
199, -130.91, 82.09, 222.62, -3139.31, 0.000, 0.000, 0.000, 18:31:19.622
200, -91.12, 81.01, 219.42, -3101.00, 0.000, 0.000, 0.000, 18:31:19.622
0, -99.04, 86.42, 223.49, -3102.00, 0.000, 0.000, 0.000, 18:31:19.622
1, -121.18, 96.38, 222.10, -3180.18, 0.000, 0.000, 0.000, 18:31:19.623
2, -120.86, 87.84, 227.72, -3157.30, 0.000, 0.000, 0.000, 18:31:19.623
3, -103.35, 78.50, 230.55, -3050.66, 0.000, 0.000, 0.000, 18:31:19.624
4, -102.72, 77.57, 220.93, -3082.63, 0.000, 0.000, 0.000, 18:31:19.624
5, -85.76, 101.32, 220.45, -3278.81, 0.000, 0.000, 0.000, 18:31:19.637
6, -134.93, 83.90, 237.85, -3129.08, 0.000, 0.000, 0.000, 18:31:19.637
7, -96.38, 81.48, 234.13, -3082.48, 0.000, 0.000, 0.000, 18:31:19.652
8, -88.50, 94.25, 222.11, -3132.08, 0.000, 0.000, 0.000, 18:31:19.652
9, -112.16, 100.87, 228.41, -3171.62, 0.000, 0.000, 0.000, 18:31:19.667
10, -114.67, 96.01, 237.40, -3152.34, 0.000, 0.000, 0.000, 18:31:19.667
11, -98.39, 81.33, 223.40, -3095.84, 0.000, 0.000, 0.000, 18:31:19.667
12, -97.66, 84.51, 221.26, -3089.83, 0.000, 0.000, 0.000, 18:31:19.667
13, -107.01, 105.60, 235.76, -3157.97, 0.000, 0.000, 0.000, 18:31:19.682
14, -99.91, 103.28, 234.29, -3175.13, 0.000, 0.000, 0.000, 18:31:19.682
15, -97.05, 78.17, 231.88, -3059.07, 0.000, 0.000, 0.000, 18:31:19.697
16, -89.54, 90.97, 231.18, -3084.11, 0.000, 0.000, 0.000, 18:31:19.697
17, -113.38, 100.01, 228.20, -3173.98, 0.000, 0.000, 0.000, 18:31:19.697
18, -120.06, 90.22, 231.85, -3136.15, 0.000, 0.000, 0.000, 18:31:19.697
19, -95.81, 82.09, 224.31, -3069.54, 0.000, 0.000, 0.000, 18:31:19.712
20, -75.45, 98.54, 221.65, -3136.93, 0.000, 0.000, 0.000, 18:31:19.712
21, -110.79, 109.75, 235.29, -3141.92, 0.000, 0.000, 0.000, 18:31:19.727
22, -121.43, 93.47, 237.04, -3124.04, 0.000, 0.000, 0.000, 18:31:19.727
23, -91.99, 84.51, 228.46, -3080.95, 0.000, 0.000, 0.000, 18:31:19.727
24, -88.27, 79.93, 229.00, -3090.12, 0.000, 0.000, 0.000, 18:31:19.727
25, -111.69, 101.02, 228.99, -3184.13, 0.000, 0.000, 0.000, 18:31:19.742
26, -111.82, 105.77, 226.47, -3188.19, 0.000, 0.000, 0.000, 18:31:19.742
27, -103.28, 81.00, 227.19, -3063.11, 0.000, 0.000, 0.000, 18:31:19.757
28, -86.08, 98.73, 230.03, -3117.35, 0.000, 0.000, 0.000, 18:31:19.757
29, -107.05, 104.21, 230.81, -3178.40, 0.000, 0.000, 0.000, 18:31:19.757
30, -121.55, 92.27, 236.20, -3123.34, 0.000, 0.000, 0.000, 18:31:19.758
31, -92.82, 85.30, 229.47, -3085.97, 0.000, 0.000, 0.000, 18:31:19.772
32, -77.14, 97.36, 219.05, -3151.44, 0.000, 0.000, 0.000, 18:31:19.772
33, -109.13, 104.07, 228.41, -3171.91, 0.000, 0.000, 0.000, 18:31:19.786
34, -112.04, 98.11, 230.91, -3150.05, 0.000, 0.000, 0.000, 18:31:19.786
35, -92.98, 85.96, 221.83, -3084.42, 0.000, 0.000, 0.000, 18:31:19.787
36, -96.21, 87.52, 222.67, -3089.07, 0.000, 0.000, 0.000, 18:31:19.787
37, -107.26, 104.22, 234.36, -3165.33, 0.000, 0.000, 0.000, 18:31:19.804
38, -110.73, 92.91, 226.17, -3186.88, 0.000, 0.000, 0.000, 18:31:19.804
39, -100.37, 83.03, 228.63, -3058.69, 0.000, 0.000, 0.000, 18:31:19.816
40, -96.27, 87.88, 220.64, -3092.98, 0.000, 0.000, 0.000, 18:31:19.817
41, -114.35, 95.59, 226.56, -3164.93, 0.000, 0.000, 0.000, 18:31:19.817
42, -133.77, 84.91, 232.81, -3116.96, 0.000, 0.000, 0.000, 18:31:19.817
43, -105.22, 75.84, 223.70, -3050.94, 0.000, 0.000, 0.000, 18:31:19.832
44, -80.82, 94.17, 229.23, -3126.54, 0.000, 0.000, 0.000, 18:31:19.832
45, -115.61, 91.80, 237.38, -3133.97, 0.000, 0.000, 0.000, 18:31:19.846
46, -123.67, 82.53, 234.13, -3128.60, 0.000, 0.000, 0.000, 18:31:19.847
47, -93.67, 81.93, 226.18, -3089.80, 0.000, 0.000, 0.000, 18:31:19.847
48, -94.97, 84.68, 224.21, -3092.08, 0.000, 0.000, 0.000, 18:31:19.847
49, -115.31, 94.69, 226.85, -3155.73, 0.000, 0.000, 0.000, 18:31:19.862
50, -103.01, 95.62, 240.91, -3162.57, 0.000, 0.000, 0.000, 18:31:19.862
51, -101.13, 75.76, 233.21, -3032.00, 0.000, 0.000, 0.000, 18:31:19.877
52, -82.20, 88.94, 238.01, -3081.73, 0.000, 0.000, 0.000, 18:31:19.877
53, -100.42, 102.58, 240.46, -3190.28, 0.000, 0.000, 0.000, 18:31:19.877
54, -111.47, 88.41, 241.41, -3146.23, 0.000, 0.000, 0.000, 18:31:19.877
55, -91.36, 73.23, 235.56, -3080.71, 0.000, 0.000, 0.000, 18:31:19.892
56, -69.02, 100.81, 234.23, -3133.98, 0.000, 0.000, 0.000, 18:31:19.892
57, -112.98, 98.51, 238.68, -3139.41, 0.000, 0.000, 0.000, 18:31:19.907
58, -114.03, 93.84, 251.06, -3146.89, 0.000, 0.000, 0.000, 18:31:19.907
59, -85.22, 82.82, 235.37, -3103.97, 0.000, 0.000, 0.000, 18:31:19.907
60, -89.42, 87.07, 232.00, -3081.73, 0.000, 0.000, 0.000, 18:31:19.907
61, -102.21, 102.02, 242.05, -3175.96, 0.000, 0.000, 0.000, 18:31:19.936
62, -99.57, 98.34, 237.58, -3197.21, 0.000, 0.000, 0.000, 18:31:19.937
63, -99.34, 80.66, 226.02, -3084.90, 0.000, 0.000, 0.000, 18:31:19.937
64, -84.62, 86.21, 224.59, -3123.80, 0.000, 0.000, 0.000, 18:31:19.937
65, -111.25, 101.14, 231.57, -3181.30, 0.000, 0.000, 0.000, 18:31:19.938
66, -116.94, 92.42, 239.40, -3138.08, 0.000, 0.000, 0.000, 18:31:19.938
67, -101.53, 75.70, 226.29, -3079.31, 0.000, 0.000, 0.000, 18:31:19.952
68, -72.24, 88.89, 212.73, -3171.51, 0.000, 0.000, 0.000, 18:31:19.952
69, -121.58, 89.94, 234.48, -3137.53, 0.000, 0.000, 0.000, 18:31:19.967
70, -125.25, 85.00, 236.26, -3131.39, 0.000, 0.000, 0.000, 18:31:19.967
71, -95.37, 77.86, 226.33, -3075.92, 0.000, 0.000, 0.000, 18:31:19.967
72, -95.57, 88.67, 232.49, -3068.26, 0.000, 0.000, 0.000, 18:31:19.967
73, -107.75, 100.19, 235.09, -3178.24, 0.000, 0.000, 0.000, 18:31:19.982
74, -104.76, 96.92, 230.32, -3176.84, 0.000, 0.000, 0.000, 18:31:19.982
75, -106.30, 78.07, 225.71, -3045.24, 0.000, 0.000, 0.000, 18:31:19.997
76, -91.95, 88.69, 230.85, -3083.26, 0.000, 0.000, 0.000, 18:31:19.997
77, -115.59, 96.94, 222.02, -3178.28, 0.000, 0.000, 0.000, 18:31:19.997
78, -127.14, 85.23, 230.00, -3123.80, 0.000, 0.000, 0.000, 18:31:19.997
79, -102.38, 78.73, 225.94, -3067.97, 0.000, 0.000, 0.000, 18:31:20.012
80, -90.23, 88.11, 215.97, -3130.48, 0.000, 0.000, 0.000, 18:31:20.012
81, -125.05, 98.03, 228.56, -3118.21, 0.000, 0.000, 0.000, 18:31:20.026
82, -126.26, 89.61, 229.85, -3124.64, 0.000, 0.000, 0.000, 18:31:20.026
83, -109.41, 73.92, 215.85, -3101.88, 0.000, 0.000, 0.000, 18:31:20.027
84, -98.42, 84.88, 219.37, -3097.86, 0.000, 0.000, 0.000, 18:31:20.027
85, -104.87, 101.24, 233.15, -3177.12, 0.000, 0.000, 0.000, 18:31:20.042
86, -110.71, 92.42, 223.90, -3198.74, 0.000, 0.000, 0.000, 18:31:20.042
87, -100.88, 85.52, 228.22, -3046.43, 0.000, 0.000, 0.000, 18:31:20.057
88, -88.98, 91.62, 221.57, -3103.83, 0.000, 0.000, 0.000, 18:31:20.057
89, -108.47, 105.14, 230.34, -3172.44, 0.000, 0.000, 0.000, 18:31:20.057
90, -115.99, 92.97, 239.61, -3129.16, 0.000, 0.000, 0.000, 18:31:20.057
91, -92.96, 83.53, 231.02, -3064.36, 0.000, 0.000, 0.000, 18:31:20.072
92, -77.55, 90.24, 220.98, -3158.71, 0.000, 0.000, 0.000, 18:31:20.072
93, -101.16, 104.93, 237.42, -3169.70, 0.000, 0.000, 0.000, 18:31:20.087
94, -110.61, 95.37, 239.29, -3149.31, 0.000, 0.000, 0.000, 18:31:20.087
95, -90.35, 83.09, 228.68, -3090.45, 0.000, 0.000, 0.000, 18:31:20.087
96, -90.33, 86.55, 226.68, -3080.52, 0.000, 0.000, 0.000, 18:31:20.087
97, -106.72, 106.68, 236.32, -3171.63, 0.000, 0.000, 0.000, 18:31:20.102
98, -104.64, 99.84, 232.13, -3196.62, 0.000, 0.000, 0.000, 18:31:20.102
99, -97.42, 81.70, 227.14, -3092.76, 0.000, 0.000, 0.000, 18:31:20.117
100, -85.57, 93.45, 226.11, -3118.03, 0.000, 0.000, 0.000, 18:31:20.117
101, -105.01, 104.02, 229.75, -3212.16, 0.000, 0.000, 0.000, 18:31:20.117
102, -120.19, 92.63, 232.19, -3143.91, 0.000, 0.000, 0.000, 18:31:20.118
103, -92.81, 88.16, 230.65, -3096.12, 0.000, 0.000, 0.000, 18:31:20.132
104, -77.30, 92.76, 212.76, -3156.90, 0.000, 0.000, 0.000, 18:31:20.132
105, -114.53, 105.50, 232.03, -3157.83, 0.000, 0.000, 0.000, 18:31:20.147
106, -129.68, 84.05, 226.53, -3142.45, 0.000, 0.000, 0.000, 18:31:20.147
107, -91.81, 89.54, 230.32, -3083.98, 0.000, 0.000, 0.000, 18:31:20.147
108, -89.52, 89.59, 224.01, -3085.17, 0.000, 0.000, 0.000, 18:31:20.147
109, -107.22, 104.73, 235.40, -3141.61, 0.000, 0.000, 0.000, 18:31:20.162
110, -103.36, 100.10, 234.54, -3155.97, 0.000, 0.000, 0.000, 18:31:20.162
111, -98.88, 83.53, 234.47, -3055.74, 0.000, 0.000, 0.000, 18:31:20.177
112, -90.91, 86.59, 233.32, -3085.02, 0.000, 0.000, 0.000, 18:31:20.179
113, -104.64, 101.81, 235.58, -3172.70, 0.000, 0.000, 0.000, 18:31:20.179
114, -120.92, 84.99, 239.74, -3131.15, 0.000, 0.000, 0.000, 18:31:20.179
115, -95.75, 73.64, 233.96, -3058.56, 0.000, 0.000, 0.000, 18:31:20.192
116, -73.14, 94.44, 229.04, -3117.39, 0.000, 0.000, 0.000, 18:31:20.192
117, -105.93, 103.45, 245.28, -3149.38, 0.000, 0.000, 0.000, 18:31:20.206
118, -118.29, 95.54, 238.32, -3155.88, 0.000, 0.000, 0.000, 18:31:20.207
119, -90.70, 81.98, 227.29, -3117.39, 0.000, 0.000, 0.000, 18:31:20.207
120, -91.80, 91.25, 222.27, -3085.61, 0.000, 0.000, 0.000, 18:31:20.207
121, -104.28, 104.23, 236.69, -3164.68, 0.000, 0.000, 0.000, 18:31:20.222
122, -112.75, 96.79, 227.23, -3204.01, 0.000, 0.000, 0.000, 18:31:20.222
123, -100.64, 77.38, 228.63, -3047.10, 0.000, 0.000, 0.000, 18:31:20.237
124, -89.34, 90.32, 227.46, -3093.46, 0.000, 0.000, 0.000, 18:31:20.237
125, -113.97, 100.52, 229.60, -3159.16, 0.000, 0.000, 0.000, 18:31:20.237
126, -125.10, 88.23, 237.06, -3131.49, 0.000, 0.000, 0.000, 18:31:20.238
127, -101.12, 80.62, 229.36, -3071.10, 0.000, 0.000, 0.000, 18:31:20.267
128, -80.58, 92.84, 220.98, -3137.92, 0.000, 0.000, 0.000, 18:31:20.267
129, -111.38, 107.46, 241.06, -3130.67, 0.000, 0.000, 0.000, 18:31:20.267
130, -122.24, 92.90, 236.21, -3133.83, 0.000, 0.000, 0.000, 18:31:20.267
131, -108.58, 75.82, 219.05, -3069.01, 0.000, 0.000, 0.000, 18:31:20.268
132, -100.42, 82.33, 221.13, -3059.70, 0.000, 0.000, 0.000, 18:31:20.268
133, -117.19, 95.61, 236.28, -3136.77, 0.000, 0.000, 0.000, 18:31:20.282
134, -104.89, 92.68, 221.02, -3218.48, 0.000, 0.000, 0.000, 18:31:20.282
135, -113.34, 77.94, 226.55, -3044.20, 0.000, 0.000, 0.000, 18:31:20.297
136, -93.51, 88.31, 227.91, -3085.63, 0.000, 0.000, 0.000, 18:31:20.297
137, -109.58, 103.96, 226.97, -3170.58, 0.000, 0.000, 0.000, 18:31:20.297
138, -129.20, 92.87, 229.87, -3129.22, 0.000, 0.000, 0.000, 18:31:20.297
139, -98.00, 91.43, 232.11, -3053.63, 0.000, 0.000, 0.000, 18:31:20.312
140, -79.26, 97.90, 222.08, -3133.31, 0.000, 0.000, 0.000, 18:31:20.312
141, -114.71, 113.22, 231.04, -3154.23, 0.000, 0.000, 0.000, 18:31:20.327
142, -117.46, 108.05, 234.15, -3149.47, 0.000, 0.000, 0.000, 18:31:20.328
143, -97.24, 94.74, 221.36, -3089.23, 0.000, 0.000, 0.000, 18:31:20.328
144, -83.42, 120.48, 234.46, -3067.79, 0.000, 0.000, 0.000, 18:31:20.328
145, -102.37, 142.17, 243.04, -3138.30, 0.000, 0.000, 0.000, 18:31:20.342
146, -98.11, 147.90, 233.39, -3145.75, 0.000, 0.000, 0.000, 18:31:20.342
147, -93.25, 137.03, 236.64, -3014.98, 0.000, 0.000, 0.000, 18:31:20.357
148, -82.47, 155.17, 231.39, -3050.50, 0.000, 0.000, 0.000, 18:31:20.357
149, -78.50, 188.23, 249.95, -3126.03, 0.000, 0.000, 0.000, 18:31:20.357
150, -92.75, 196.28, 255.00, -3036.66, 0.000, 0.000, 0.000, 18:31:20.357
151, -68.88, 195.52, 253.17, -2948.82, 0.000, 0.000, 0.000, 18:31:20.372
152, -40.16, 211.33, 252.05, -3000.35, 0.000, 0.000, 0.000, 18:31:20.372
153, -68.61, 231.67, 263.15, -3042.69, 0.000, 0.000, 0.000, 18:31:20.386
154, -84.20, 216.59, 252.58, -3033.86, 0.000, 0.000, 0.000, 18:31:20.387
155, -68.70, 192.33, 241.13, -2991.92, 0.000, 0.000, 0.000, 18:31:20.387
156, -71.27, 188.78, 244.19, -2981.98, 0.000, 0.000, 0.000, 18:31:20.387
157, -86.16, 188.86, 249.57, -3084.57, 0.000, 0.000, 0.000, 18:31:20.402
158, -95.83, 166.22, 241.40, -3118.94, 0.000, 0.000, 0.000, 18:31:20.402
159, -91.54, 133.37, 237.02, -2997.30, 0.000, 0.000, 0.000, 18:31:20.417
160, -83.99, 128.85, 239.84, -3032.01, 0.000, 0.000, 0.000, 18:31:20.417
161, -98.24, 134.77, 241.04, -3123.54, 0.000, 0.000, 0.000, 18:31:20.417
162, -119.84, 106.11, 242.23, -3094.32, 0.000, 0.000, 0.000, 18:31:20.417
163, -104.25, 86.40, 226.73, -3062.76, 0.000, 0.000, 0.000, 18:31:20.432
164, -84.08, 90.69, 220.28, -3141.73, 0.000, 0.000, 0.000, 18:31:20.432
165, -117.51, 86.19, 236.00, -3168.47, 0.000, 0.000, 0.000, 18:31:20.447
166, -126.65, 76.38, 235.01, -3176.60, 0.000, 0.000, 0.000, 18:31:20.447
167, -104.95, 60.13, 221.12, -3106.78, 0.000, 0.000, 0.000, 18:31:20.447
168, -108.42, 59.61, 222.09, -3096.24, 0.000, 0.000, 0.000, 18:31:20.447
169, -130.26, 67.03, 224.60, -3179.01, 0.000, 0.000, 0.000, 18:31:20.462
170, -128.09, 63.09, 220.03, -3227.61, 0.000, 0.000, 0.000, 18:31:20.462
171, -108.95, 50.47, 228.91, -3095.80, 0.000, 0.000, 0.000, 18:31:20.476
172, -100.46, 53.99, 220.48, -3149.56, 0.000, 0.000, 0.000, 18:31:20.477
173, -121.03, 62.20, 217.87, -3203.55, 0.000, 0.000, 0.000, 18:31:20.477
174, -136.47, 59.23, 229.76, -3139.67, 0.000, 0.000, 0.000, 18:31:20.477
175, -109.61, 44.85, 223.31, -3114.55, 0.000, 0.000, 0.000, 18:31:20.492
176, -91.02, 57.84, 217.58, -3163.07, 0.000, 0.000, 0.000, 18:31:20.492
177, -120.42, 63.42, 225.06, -3201.05, 0.000, 0.000, 0.000, 18:31:20.507
178, -118.82, 64.18, 238.93, -3192.26, 0.000, 0.000, 0.000, 18:31:20.507
179, -103.97, 49.64, 224.59, -3116.27, 0.000, 0.000, 0.000, 18:31:20.507
180, -104.85, 54.46, 226.51, -3093.85, 0.000, 0.000, 0.000, 18:31:20.507
181, -116.84, 68.84, 237.33, -3163.16, 0.000, 0.000, 0.000, 18:31:20.522
182, -118.24, 64.90, 235.57, -3173.12, 0.000, 0.000, 0.000, 18:31:20.522
183, -118.64, 44.85, 227.43, -3089.21, 0.000, 0.000, 0.000, 18:31:20.536
184, -101.08, 53.31, 223.77, -3113.25, 0.000, 0.000, 0.000, 18:31:20.537
185, -117.05, 67.73, 227.17, -3193.35, 0.000, 0.000, 0.000, 18:31:20.537
186, -122.00, 63.82, 243.23, -3152.48, 0.000, 0.000, 0.000, 18:31:20.537
187, -98.77, 60.47, 238.45, -3099.73, 0.000, 0.000, 0.000, 18:31:20.552
188, -80.70, 65.05, 222.99, -3139.78, 0.000, 0.000, 0.000, 18:31:20.552
189, -116.77, 76.04, 235.77, -3157.89, 0.000, 0.000, 0.000, 18:31:20.582
190, -121.03, 72.05, 236.73, -3175.65, 0.000, 0.000, 0.000, 18:31:20.582
191, -103.33, 57.53, 224.88, -3123.64, 0.000, 0.000, 0.000, 18:31:20.582
192, -101.67, 67.20, 227.75, -3090.05, 0.000, 0.000, 0.000, 18:31:20.582
193, -119.27, 81.81, 234.22, -3177.23, 0.000, 0.000, 0.000, 18:31:20.583
194, -125.83, 73.27, 237.05, -3161.49, 0.000, 0.000, 0.000, 18:31:20.583
195, -108.20, 61.33, 228.29, -3085.59, 0.000, 0.000, 0.000, 18:31:20.583
196, -98.74, 69.16, 221.05, -3142.93, 0.000, 0.000, 0.000, 18:31:20.583
197, -74.70, 94.89, 217.48, -3326.81, 0.000, 0.000, 0.000, 18:31:20.597
198, -132.90, 76.89, 233.10, -3157.63, 0.000, 0.000, 0.000, 18:31:20.597
199, -110.12, 58.69, 224.06, -3107.48, 0.000, 0.000, 0.000, 18:31:20.612
200, -88.16, 77.01, 223.03, -3128.06, 0.000, 0.000, 0.000, 18:31:20.612
0, -109.87, 86.18, 234.46, -3187.71, 0.000, 0.000, 0.000, 18:31:20.612
1, -127.87, 76.42, 224.96, -3187.68, 0.000, 0.000, 0.000, 18:31:20.627
2, -93.73, 70.10, 213.44, -3160.48, 0.000, 0.000, 0.000, 18:31:20.627
3, -101.28, 76.15, 219.11, -3075.59, 0.000, 0.000, 0.000, 18:31:20.642
4, -117.22, 89.58, 228.19, -3169.47, 0.000, 0.000, 0.000, 18:31:20.642
5, -120.85, 81.98, 231.52, -3185.44, 0.000, 0.000, 0.000, 18:31:20.642
6, -108.41, 75.72, 224.83, -3084.21, 0.000, 0.000, 0.000, 18:31:20.642
7, -100.30, 81.80, 223.68, -3080.20, 0.000, 0.000, 0.000, 18:31:20.657
8, -104.35, 92.98, 222.67, -3229.28, 0.000, 0.000, 0.000, 18:31:20.657
9, -125.18, 87.03, 230.90, -3168.95, 0.000, 0.000, 0.000, 18:31:20.671
10, -104.73, 71.06, 223.99, -3098.22, 0.000, 0.000, 0.000, 18:31:20.672
11, -89.30, 88.46, 221.47, -3106.72, 0.000, 0.000, 0.000, 18:31:20.672
12, -118.04, 98.50, 235.37, -3157.33, 0.000, 0.000, 0.000, 18:31:20.672
13, -127.01, 89.35, 239.29, -3155.13, 0.000, 0.000, 0.000, 18:31:20.687
14, -102.29, 69.76, 216.56, -3137.53, 0.000, 0.000, 0.000, 18:31:20.687
15, -90.93, 87.52, 230.89, -3085.74, 0.000, 0.000, 0.000, 18:31:20.702
16, -113.27, 96.36, 232.61, -3169.06, 0.000, 0.000, 0.000, 18:31:20.702
17, -120.43, 88.19, 232.53, -3165.75, 0.000, 0.000, 0.000, 18:31:20.702
18, -111.88, 66.34, 225.27, -3077.32, 0.000, 0.000, 0.000, 18:31:20.702
19, -82.84, 90.12, 234.69, -3084.10, 0.000, 0.000, 0.000, 18:31:20.717
20, -95.60, 98.59, 227.86, -3219.00, 0.000, 0.000, 0.000, 18:31:20.717
21, -122.87, 93.68, 236.82, -3138.19, 0.000, 0.000, 0.000, 18:31:20.732
22, -98.68, 80.53, 233.24, -3067.59, 0.000, 0.000, 0.000, 18:31:20.732
23, -84.42, 92.92, 226.94, -3103.46, 0.000, 0.000, 0.000, 18:31:20.732
24, -112.72, 99.28, 236.22, -3139.60, 0.000, 0.000, 0.000, 18:31:20.732
25, -118.41, 94.73, 239.70, -3159.15, 0.000, 0.000, 0.000, 18:31:20.747
26, -84.15, 88.56, 231.75, -3124.96, 0.000, 0.000, 0.000, 18:31:20.747
27, -91.12, 88.05, 230.52, -3074.84, 0.000, 0.000, 0.000, 18:31:20.762
28, -110.97, 100.70, 238.73, -3167.38, 0.000, 0.000, 0.000, 18:31:20.762
29, -120.78, 93.55, 239.03, -3162.45, 0.000, 0.000, 0.000, 18:31:20.762
30, -110.63, 67.36, 223.34, -3088.88, 0.000, 0.000, 0.000, 18:31:20.762
31, -91.74, 85.17, 229.91, -3096.93, 0.000, 0.000, 0.000, 18:31:20.777
32, -108.30, 92.87, 221.03, -3197.55, 0.000, 0.000, 0.000, 18:31:20.777
33, -128.05, 88.13, 238.26, -3139.00, 0.000, 0.000, 0.000, 18:31:20.792
34, -99.93, 85.19, 234.85, -3071.28, 0.000, 0.000, 0.000, 18:31:20.792
35, -78.15, 98.66, 229.38, -3100.25, 0.000, 0.000, 0.000, 18:31:20.792
36, -103.92, 104.29, 236.40, -3157.74, 0.000, 0.000, 0.000, 18:31:20.792
37, -118.87, 99.02, 237.90, -3164.89, 0.000, 0.000, 0.000, 18:31:20.807
38, -97.74, 79.79, 217.48, -3119.93, 0.000, 0.000, 0.000, 18:31:20.807
39, -91.10, 81.98, 227.15, -3098.14, 0.000, 0.000, 0.000, 18:31:20.822
40, -100.90, 100.88, 234.39, -3158.07, 0.000, 0.000, 0.000, 18:31:20.822
41, -104.80, 104.94, 240.42, -3160.01, 0.000, 0.000, 0.000, 18:31:20.822
42, -92.56, 84.47, 238.68, -3060.82, 0.000, 0.000, 0.000, 18:31:20.822
43, -84.15, 90.65, 232.49, -3101.23, 0.000, 0.000, 0.000, 18:31:20.837
44, -93.59, 108.83, 227.95, -3215.51, 0.000, 0.000, 0.000, 18:31:20.837
45, -118.99, 102.65, 243.22, -3154.88, 0.000, 0.000, 0.000, 18:31:20.851
46, -100.25, 80.47, 227.09, -3095.55, 0.000, 0.000, 0.000, 18:31:20.852
47, -90.09, 87.45, 217.93, -3110.80, 0.000, 0.000, 0.000, 18:31:20.852
48, -118.78, 91.05, 226.50, -3173.57, 0.000, 0.000, 0.000, 18:31:20.852
49, -125.77, 87.18, 229.35, -3169.56, 0.000, 0.000, 0.000, 18:31:20.867
50, -97.08, 74.57, 217.97, -3149.14, 0.000, 0.000, 0.000, 18:31:20.867
51, -101.05, 89.47, 225.91, -3069.56, 0.000, 0.000, 0.000, 18:31:20.897
52, -116.64, 102.43, 236.20, -3150.37, 0.000, 0.000, 0.000, 18:31:20.897
53, -112.36, 99.85, 243.92, -3159.64, 0.000, 0.000, 0.000, 18:31:20.897
54, -112.83, 75.57, 222.18, -3083.88, 0.000, 0.000, 0.000, 18:31:20.897
55, -102.03, 80.14, 217.09, -3097.37, 0.000, 0.000, 0.000, 18:31:20.898
56, -117.82, 95.81, 230.71, -3150.88, 0.000, 0.000, 0.000, 18:31:20.898
57, -132.73, 88.26, 233.35, -3133.71, 0.000, 0.000, 0.000, 18:31:20.899
58, -97.21, 83.75, 240.23, -3086.52, 0.000, 0.000, 0.000, 18:31:20.899
59, -52.84, 106.25, 219.47, -3198.89, 0.000, 0.000, 0.000, 18:31:20.912
60, -121.85, 95.74, 240.20, -3152.09, 0.000, 0.000, 0.000, 18:31:20.912
61, -117.42, 96.25, 239.25, -3150.40, 0.000, 0.000, 0.000, 18:31:20.927
62, -99.55, 87.87, 227.26, -3087.29, 0.000, 0.000, 0.000, 18:31:20.927
63, -102.17, 84.58, 223.38, -3067.40, 0.000, 0.000, 0.000, 18:31:20.942
64, -122.97, 96.56, 228.40, -3143.24, 0.000, 0.000, 0.000, 18:31:20.942
65, -131.02, 86.13, 227.30, -3177.54, 0.000, 0.000, 0.000, 18:31:20.942
66, -111.24, 79.47, 228.32, -3079.88, 0.000, 0.000, 0.000, 18:31:20.942
67, -95.40, 80.50, 226.57, -3092.40, 0.000, 0.000, 0.000, 18:31:20.957
68, -97.11, 103.95, 230.97, -3225.39, 0.000, 0.000, 0.000, 18:31:20.957
69, -128.33, 83.94, 228.27, -3135.99, 0.000, 0.000, 0.000, 18:31:20.972
70, -100.27, 80.21, 232.59, -3085.19, 0.000, 0.000, 0.000, 18:31:20.972
71, -93.95, 85.84, 222.64, -3095.35, 0.000, 0.000, 0.000, 18:31:20.972
72, -117.61, 93.28, 230.16, -3137.28, 0.000, 0.000, 0.000, 18:31:20.972
73, -127.60, 86.38, 234.11, -3155.56, 0.000, 0.000, 0.000, 18:31:20.987
74, -96.69, 77.55, 221.10, -3136.60, 0.000, 0.000, 0.000, 18:31:20.987
75, -104.29, 84.26, 222.80, -3070.51, 0.000, 0.000, 0.000, 18:31:21.002
76, -111.64, 96.87, 231.10, -3158.72, 0.000, 0.000, 0.000, 18:31:21.002
77, -121.33, 95.51, 227.01, -3181.82, 0.000, 0.000, 0.000, 18:31:21.002
78, -105.16, 79.96, 226.95, -3082.26, 0.000, 0.000, 0.000, 18:31:21.002
79, -97.03, 81.35, 217.88, -3081.73, 0.000, 0.000, 0.000, 18:31:21.017
80, -99.79, 107.53, 229.57, -3185.27, 0.000, 0.000, 0.000, 18:31:21.017
81, -123.65, 90.10, 238.95, -3137.63, 0.000, 0.000, 0.000, 18:31:21.032
82, -106.11, 74.38, 228.06, -3075.92, 0.000, 0.000, 0.000, 18:31:21.032
83, -89.02, 88.50, 223.59, -3119.23, 0.000, 0.000, 0.000, 18:31:21.032
84, -111.29, 99.65, 239.15, -3143.25, 0.000, 0.000, 0.000, 18:31:21.032
85, -123.83, 94.29, 237.15, -3160.12, 0.000, 0.000, 0.000, 18:31:21.047
86, -93.50, 80.09, 225.04, -3116.22, 0.000, 0.000, 0.000, 18:31:21.047
87, -97.22, 83.19, 227.49, -3066.07, 0.000, 0.000, 0.000, 18:31:21.062
88, -107.17, 97.76, 242.69, -3154.84, 0.000, 0.000, 0.000, 18:31:21.062
89, -115.66, 91.70, 234.55, -3190.39, 0.000, 0.000, 0.000, 18:31:21.062
90, -112.03, 71.94, 224.54, -3069.49, 0.000, 0.000, 0.000, 18:31:21.062
91, -96.36, 81.08, 225.77, -3105.47, 0.000, 0.000, 0.000, 18:31:21.077
92, -94.54, 100.89, 229.86, -3221.75, 0.000, 0.000, 0.000, 18:31:21.077
93, -132.29, 90.67, 232.81, -3123.95, 0.000, 0.000, 0.000, 18:31:21.092
94, -106.84, 79.77, 234.06, -3079.99, 0.000, 0.000, 0.000, 18:31:21.092
95, -91.93, 84.73, 215.03, -3122.25, 0.000, 0.000, 0.000, 18:31:21.092
96, -106.69, 99.61, 231.80, -3149.83, 0.000, 0.000, 0.000, 18:31:21.092
97, -118.80, 100.13, 236.55, -3161.89, 0.000, 0.000, 0.000, 18:31:21.107
98, -95.67, 82.95, 217.72, -3152.15, 0.000, 0.000, 0.000, 18:31:21.107
99, -89.64, 92.21, 226.78, -3090.51, 0.000, 0.000, 0.000, 18:31:21.122
100, -112.45, 104.11, 233.15, -3136.21, 0.000, 0.000, 0.000, 18:31:21.122
101, -120.43, 94.97, 237.93, -3151.54, 0.000, 0.000, 0.000, 18:31:21.122
102, -104.43, 78.92, 230.74, -3060.93, 0.000, 0.000, 0.000, 18:31:21.122
103, -97.64, 75.77, 222.09, -3078.12, 0.000, 0.000, 0.000, 18:31:21.137
104, -99.22, 101.99, 226.65, -3193.51, 0.000, 0.000, 0.000, 18:31:21.137
105, -128.87, 86.24, 234.97, -3150.86, 0.000, 0.000, 0.000, 18:31:21.152
106, -105.07, 78.49, 228.32, -3093.19, 0.000, 0.000, 0.000, 18:31:21.152
107, -88.70, 79.73, 218.44, -3109.57, 0.000, 0.000, 0.000, 18:31:21.152
108, -103.63, 100.86, 239.63, -3155.21, 0.000, 0.000, 0.000, 18:31:21.152
109, -108.00, 104.44, 248.13, -3151.54, 0.000, 0.000, 0.000, 18:31:21.167
110, -81.28, 89.31, 228.92, -3141.20, 0.000, 0.000, 0.000, 18:31:21.167
111, -89.92, 85.25, 224.84, -3076.01, 0.000, 0.000, 0.000, 18:31:21.182
112, -98.88, 103.00, 239.95, -3157.11, 0.000, 0.000, 0.000, 18:31:21.182
113, -104.34, 96.20, 238.35, -3182.77, 0.000, 0.000, 0.000, 18:31:21.182
114, -95.46, 87.55, 236.86, -3072.07, 0.000, 0.000, 0.000, 18:31:21.182
115, -81.58, 93.25, 228.59, -3109.04, 0.000, 0.000, 0.000, 18:31:21.197
116, -93.47, 102.69, 227.65, -3232.97, 0.000, 0.000, 0.000, 18:31:21.197
117, -120.53, 92.58, 226.68, -3167.77, 0.000, 0.000, 0.000, 18:31:21.227
118, -99.85, 83.49, 224.81, -3109.79, 0.000, 0.000, 0.000, 18:31:21.227
119, -88.81, 84.36, 211.21, -3129.50, 0.000, 0.000, 0.000, 18:31:21.227
120, -106.83, 99.47, 231.92, -3158.81, 0.000, 0.000, 0.000, 18:31:21.227
121, -122.02, 97.20, 235.35, -3164.42, 0.000, 0.000, 0.000, 18:31:21.228
122, -107.17, 83.42, 225.39, -3069.90, 0.000, 0.000, 0.000, 18:31:21.228
123, -95.82, 86.12, 227.58, -3066.36, 0.000, 0.000, 0.000, 18:31:21.229
124, -106.52, 97.53, 235.77, -3169.72, 0.000, 0.000, 0.000, 18:31:21.229
125, -81.84, 107.34, 223.37, -3307.18, 0.000, 0.000, 0.000, 18:31:21.242
126, -115.71, 77.92, 224.83, -3058.27, 0.000, 0.000, 0.000, 18:31:21.242
127, -96.81, 79.17, 223.82, -3067.26, 0.000, 0.000, 0.000, 18:31:21.257
128, -102.32, 96.35, 233.14, -3161.58, 0.000, 0.000, 0.000, 18:31:21.257
129, -135.26, 88.18, 228.60, -3164.91, 0.000, 0.000, 0.000, 18:31:21.272
130, -103.55, 73.00, 228.64, -3095.30, 0.000, 0.000, 0.000, 18:31:21.272
131, -94.33, 87.66, 222.48, -3101.86, 0.000, 0.000, 0.000, 18:31:21.272
132, -118.86, 97.75, 227.77, -3169.39, 0.000, 0.000, 0.000, 18:31:21.272
133, -122.73, 96.39, 235.62, -3164.46, 0.000, 0.000, 0.000, 18:31:21.287
134, -93.13, 79.31, 223.04, -3140.16, 0.000, 0.000, 0.000, 18:31:21.287
135, -94.49, 90.79, 230.69, -3046.68, 0.000, 0.000, 0.000, 18:31:21.302
136, -106.66, 104.16, 233.71, -3154.77, 0.000, 0.000, 0.000, 18:31:21.302
137, -112.61, 87.35, 230.64, -3198.40, 0.000, 0.000, 0.000, 18:31:21.302
138, -100.97, 69.44, 230.83, -3107.99, 0.000, 0.000, 0.000, 18:31:21.302
139, -84.35, 96.33, 233.71, -3080.26, 0.000, 0.000, 0.000, 18:31:21.317
140, -97.65, 115.33, 229.14, -3183.89, 0.000, 0.000, 0.000, 18:31:21.317
141, -112.47, 101.96, 248.58, -3155.36, 0.000, 0.000, 0.000, 18:31:21.332
142, -96.50, 92.20, 233.51, -3073.17, 0.000, 0.000, 0.000, 18:31:21.332
143, -82.28, 98.02, 228.52, -3089.82, 0.000, 0.000, 0.000, 18:31:21.335
144, -112.65, 98.74, 237.04, -3141.98, 0.000, 0.000, 0.000, 18:31:21.335
145, -120.92, 96.76, 239.88, -3167.08, 0.000, 0.000, 0.000, 18:31:21.347
146, -92.04, 83.92, 225.36, -3140.61, 0.000, 0.000, 0.000, 18:31:21.347
147, -93.62, 86.27, 226.85, -3081.07, 0.000, 0.000, 0.000, 18:31:21.362
148, -96.73, 107.55, 243.37, -3164.92, 0.000, 0.000, 0.000, 18:31:21.362
149, -110.60, 101.79, 246.23, -3160.49, 0.000, 0.000, 0.000, 18:31:21.362
150, -105.48, 82.92, 238.08, -3035.88, 0.000, 0.000, 0.000, 18:31:21.362
151, -91.43, 84.29, 232.72, -3069.59, 0.000, 0.000, 0.000, 18:31:21.377
152, -94.72, 99.96, 228.82, -3200.85, 0.000, 0.000, 0.000, 18:31:21.377
153, -129.14, 88.35, 234.21, -3128.21, 0.000, 0.000, 0.000, 18:31:21.392
154, -100.70, 86.52, 235.65, -3070.23, 0.000, 0.000, 0.000, 18:31:21.392
155, -85.01, 86.15, 224.05, -3104.82, 0.000, 0.000, 0.000, 18:31:21.392
156, -109.85, 98.74, 236.78, -3130.57, 0.000, 0.000, 0.000, 18:31:21.392
157, -123.65, 89.65, 239.01, -3165.67, 0.000, 0.000, 0.000, 18:31:21.407
158, -99.62, 80.00, 228.18, -3094.01, 0.000, 0.000, 0.000, 18:31:21.407
159, -98.09, 85.62, 232.77, -3040.33, 0.000, 0.000, 0.000, 18:31:21.422
160, -118.83, 89.98, 233.88, -3148.10, 0.000, 0.000, 0.000, 18:31:21.422
161, -118.16, 92.61, 233.06, -3160.84, 0.000, 0.000, 0.000, 18:31:21.422
162, -104.78, 81.06, 238.40, -3055.05, 0.000, 0.000, 0.000, 18:31:21.422
163, -81.27, 90.70, 233.89, -3091.67, 0.000, 0.000, 0.000, 18:31:21.437
164, -92.20, 99.05, 229.89, -3213.38, 0.000, 0.000, 0.000, 18:31:21.437
165, -119.27, 95.53, 236.99, -3173.16, 0.000, 0.000, 0.000, 18:31:21.452
166, -96.66, 86.12, 234.94, -3087.88, 0.000, 0.000, 0.000, 18:31:21.452
167, -79.63, 96.43, 227.07, -3094.87, 0.000, 0.000, 0.000, 18:31:21.452
168, -103.50, 107.76, 240.47, -3155.29, 0.000, 0.000, 0.000, 18:31:21.452
169, -110.11, 106.39, 246.10, -3167.75, 0.000, 0.000, 0.000, 18:31:21.467
170, -88.73, 94.17, 230.59, -3133.43, 0.000, 0.000, 0.000, 18:31:21.467
171, -93.97, 85.60, 231.21, -3065.21, 0.000, 0.000, 0.000, 18:31:21.482
172, -105.37, 98.69, 244.46, -3138.83, 0.000, 0.000, 0.000, 18:31:21.482
173, -128.44, 88.20, 230.65, -3165.66, 0.000, 0.000, 0.000, 18:31:21.482
174, -108.24, 76.91, 229.92, -3087.94, 0.000, 0.000, 0.000, 18:31:21.482
175, -95.86, 81.98, 223.23, -3099.56, 0.000, 0.000, 0.000, 18:31:21.497
176, -86.20, 113.13, 234.05, -3217.18, 0.000, 0.000, 0.000, 18:31:21.497
177, -121.89, 98.39, 233.49, -3170.83, 0.000, 0.000, 0.000, 18:31:21.511
178, -109.13, 74.98, 220.29, -3115.31, 0.000, 0.000, 0.000, 18:31:21.512
179, -87.64, 87.14, 211.92, -3113.69, 0.000, 0.000, 0.000, 18:31:21.512
180, -106.70, 99.89, 233.68, -3142.64, 0.000, 0.000, 0.000, 18:31:21.512
181, -118.74, 95.68, 237.53, -3179.72, 0.000, 0.000, 0.000, 18:31:21.542
182, -102.44, 80.85, 221.41, -3141.92, 0.000, 0.000, 0.000, 18:31:21.542
183, -100.78, 79.71, 225.43, -3082.05, 0.000, 0.000, 0.000, 18:31:21.542
184, -109.55, 92.87, 225.88, -3180.02, 0.000, 0.000, 0.000, 18:31:21.542
185, -128.07, 90.37, 230.04, -3166.20, 0.000, 0.000, 0.000, 18:31:21.543
186, -108.22, 79.51, 227.91, -3091.99, 0.000, 0.000, 0.000, 18:31:21.543
187, -92.87, 87.08, 225.68, -3088.14, 0.000, 0.000, 0.000, 18:31:21.557
188, -78.76, 102.34, 225.15, -3241.15, 0.000, 0.000, 0.000, 18:31:21.557
189, -122.24, 92.82, 240.30, -3160.68, 0.000, 0.000, 0.000, 18:31:21.571
190, -93.84, 86.20, 242.97, -3069.95, 0.000, 0.000, 0.000, 18:31:21.572
191, -80.88, 86.11, 225.88, -3100.42, 0.000, 0.000, 0.000, 18:31:21.572
192, -102.62, 98.28, 240.22, -3151.95, 0.000, 0.000, 0.000, 18:31:21.572
193, -116.83, 90.45, 237.98, -3176.55, 0.000, 0.000, 0.000, 18:31:21.587
194, -92.57, 82.82, 223.38, -3129.28, 0.000, 0.000, 0.000, 18:31:21.587
195, -89.46, 84.18, 236.73, -3065.51, 0.000, 0.000, 0.000, 18:31:21.602
196, -96.58, 101.71, 241.77, -3134.95, 0.000, 0.000, 0.000, 18:31:21.602
197, -111.29, 103.28, 245.92, -3167.22, 0.000, 0.000, 0.000, 18:31:21.602
198, -103.59, 82.22, 237.26, -3061.24, 0.000, 0.000, 0.000, 18:31:21.602
199, -96.04, 89.08, 229.21, -3063.96, 0.000, 0.000, 0.000, 18:31:21.617
200, -100.22, 102.17, 234.17, -3178.08, 0.000, 0.000, 0.000, 18:31:21.617
0, -124.25, 92.66, 237.50, -3155.69, 0.000, 0.000, 0.000, 18:31:21.617
1, -105.06, 78.78, 231.65, -3106.79, 0.000, 0.000, 0.000, 18:31:21.632
2, -80.81, 92.75, 216.68, -3133.55, 0.000, 0.000, 0.000, 18:31:21.632
3, -98.39, 112.78, 242.16, -3150.91, 0.000, 0.000, 0.000, 18:31:21.647
4, -111.33, 105.38, 236.40, -3200.85, 0.000, 0.000, 0.000, 18:31:21.647
5, -99.09, 89.91, 226.64, -3098.44, 0.000, 0.000, 0.000, 18:31:21.647
6, -94.31, 88.93, 223.06, -3059.56, 0.000, 0.000, 0.000, 18:31:21.647
7, -115.00, 97.80, 225.02, -3166.14, 0.000, 0.000, 0.000, 18:31:21.662
8, -112.37, 99.29, 221.42, -3232.06, 0.000, 0.000, 0.000, 18:31:21.662
9, -113.58, 81.00, 220.05, -3094.05, 0.000, 0.000, 0.000, 18:31:21.677
10, -95.51, 87.16, 219.37, -3087.68, 0.000, 0.000, 0.000, 18:31:21.677
11, -104.55, 101.27, 223.95, -3178.95, 0.000, 0.000, 0.000, 18:31:21.677
12, -124.03, 86.26, 227.51, -3162.86, 0.000, 0.000, 0.000, 18:31:21.677
13, -105.14, 81.25, 226.56, -3087.14, 0.000, 0.000, 0.000, 18:31:21.692
14, -82.23, 84.77, 213.89, -3144.39, 0.000, 0.000, 0.000, 18:31:21.692
15, -115.94, 90.78, 231.47, -3141.87, 0.000, 0.000, 0.000, 18:31:21.707
16, -130.72, 84.00, 224.30, -3187.88, 0.000, 0.000, 0.000, 18:31:21.707
17, -111.58, 77.21, 214.20, -3109.07, 0.000, 0.000, 0.000, 18:31:21.707
18, -99.45, 83.44, 227.19, -3052.45, 0.000, 0.000, 0.000, 18:31:21.707
19, -103.25, 99.20, 239.45, -3144.00, 0.000, 0.000, 0.000, 18:31:21.722
20, -112.21, 100.26, 234.57, -3194.52, 0.000, 0.000, 0.000, 18:31:21.722
21, -104.49, 82.24, 235.10, -3099.74, 0.000, 0.000, 0.000, 18:31:21.737
22, -93.35, 85.90, 222.88, -3091.78, 0.000, 0.000, 0.000, 18:31:21.737
23, -106.86, 103.77, 228.60, -3170.35, 0.000, 0.000, 0.000, 18:31:21.737
24, -126.87, 92.28, 234.58, -3155.77, 0.000, 0.000, 0.000, 18:31:21.737
25, -111.26, 78.06, 225.70, -3082.46, 0.000, 0.000, 0.000, 18:31:21.752
26, -73.87, 94.22, 221.61, -3134.06, 0.000, 0.000, 0.000, 18:31:21.752
27, -106.19, 102.03, 231.10, -3143.44, 0.000, 0.000, 0.000, 18:31:21.767
28, -119.53, 98.16, 238.54, -3155.58, 0.000, 0.000, 0.000, 18:31:21.767
29, -97.77, 87.40, 232.99, -3094.11, 0.000, 0.000, 0.000, 18:31:21.767
30, -97.30, 79.67, 224.24, -3076.25, 0.000, 0.000, 0.000, 18:31:21.767
31, -101.40, 103.67, 240.37, -3156.38, 0.000, 0.000, 0.000, 18:31:21.782
32, -110.99, 96.96, 229.50, -3215.53, 0.000, 0.000, 0.000, 18:31:21.782
33, -106.36, 79.59, 227.27, -3087.17, 0.000, 0.000, 0.000, 18:31:21.796
34, -86.42, 83.93, 232.39, -3079.65, 0.000, 0.000, 0.000, 18:31:21.797
35, -103.48, 96.04, 231.77, -3140.83, 0.000, 0.000, 0.000, 18:31:21.797
36, -128.97, 94.26, 237.92, -3127.70, 0.000, 0.000, 0.000, 18:31:21.797
37, -112.16, 76.57, 228.30, -3086.52, 0.000, 0.000, 0.000, 18:31:21.812
38, -79.81, 84.55, 221.13, -3142.19, 0.000, 0.000, 0.000, 18:31:21.812
39, -111.42, 90.31, 229.94, -3158.85, 0.000, 0.000, 0.000, 18:31:21.827
40, -122.87, 91.01, 235.19, -3166.71, 0.000, 0.000, 0.000, 18:31:21.827
41, -104.81, 78.82, 225.98, -3089.90, 0.000, 0.000, 0.000, 18:31:21.827
42, -100.17, 75.22, 219.02, -3067.63, 0.000, 0.000, 0.000, 18:31:21.827
43, -115.04, 90.25, 226.49, -3155.54, 0.000, 0.000, 0.000, 18:31:21.857
44, -108.72, 94.86, 231.44, -3202.87, 0.000, 0.000, 0.000, 18:31:21.857
45, -114.95, 74.46, 225.56, -3082.08, 0.000, 0.000, 0.000, 18:31:21.857
46, -92.93, 79.46, 227.54, -3087.32, 0.000, 0.000, 0.000, 18:31:21.857
47, -97.87, 106.62, 240.30, -3147.68, 0.000, 0.000, 0.000, 18:31:21.858
48, -115.88, 101.97, 243.75, -3139.66, 0.000, 0.000, 0.000, 18:31:21.858
49, -99.54, 86.07, 241.84, -3076.13, 0.000, 0.000, 0.000, 18:31:21.872
50, -58.44, 97.99, 224.13, -3166.90, 0.000, 0.000, 0.000, 18:31:21.872
51, -108.72, 100.57, 242.60, -3131.43, 0.000, 0.000, 0.000, 18:31:21.887
52, -125.14, 96.12, 235.68, -3153.92, 0.000, 0.000, 0.000, 18:31:21.887
53, -103.48, 84.76, 227.30, -3103.52, 0.000, 0.000, 0.000, 18:31:21.887
54, -89.21, 86.32, 227.00, -3076.77, 0.000, 0.000, 0.000, 18:31:21.887
55, -104.31, 104.36, 230.22, -3166.36, 0.000, 0.000, 0.000, 18:31:21.902
56, -101.24, 113.51, 240.14, -3203.32, 0.000, 0.000, 0.000, 18:31:21.902
57, -99.79, 87.44, 242.94, -3053.13, 0.000, 0.000, 0.000, 18:31:21.917
58, -87.28, 89.33, 237.01, -3058.37, 0.000, 0.000, 0.000, 18:31:21.917
59, -101.83, 105.66, 237.05, -3146.87, 0.000, 0.000, 0.000, 18:31:21.917
60, -129.15, 92.60, 242.44, -3129.53, 0.000, 0.000, 0.000, 18:31:21.917
61, -109.43, 80.65, 237.25, -3060.56, 0.000, 0.000, 0.000, 18:31:21.932
62, -78.45, 88.16, 223.44, -3115.36, 0.000, 0.000, 0.000, 18:31:21.932
63, -109.58, 105.34, 238.83, -3129.92, 0.000, 0.000, 0.000, 18:31:21.947
64, -121.29, 102.62, 245.86, -3125.03, 0.000, 0.000, 0.000, 18:31:21.947
65, -105.63, 86.12, 232.04, -3085.52, 0.000, 0.000, 0.000, 18:31:21.947
66, -93.80, 82.14, 230.63, -3071.97, 0.000, 0.000, 0.000, 18:31:21.947
67, -101.27, 99.56, 237.51, -3156.26, 0.000, 0.000, 0.000, 18:31:21.962
68, -103.39, 96.84, 230.96, -3228.50, 0.000, 0.000, 0.000, 18:31:21.962
69, -106.03, 81.53, 227.64, -3108.70, 0.000, 0.000, 0.000, 18:31:21.977
70, -85.05, 90.73, 229.40, -3082.39, 0.000, 0.000, 0.000, 18:31:21.977
71, -100.07, 103.31, 228.69, -3200.49, 0.000, 0.000, 0.000, 18:31:21.977
72, -125.10, 98.69, 236.41, -3138.74, 0.000, 0.000, 0.000, 18:31:21.977
73, -107.14, 86.63, 237.98, -3059.02, 0.000, 0.000, 0.000, 18:31:21.992
74, -85.50, 94.17, 225.29, -3094.12, 0.000, 0.000, 0.000, 18:31:21.992
75, -114.09, 98.63, 232.14, -3129.67, 0.000, 0.000, 0.000, 18:31:22.007
76, -128.40, 95.06, 239.60, -3157.59, 0.000, 0.000, 0.000, 18:31:22.007
77, -116.00, 75.69, 223.72, -3113.27, 0.000, 0.000, 0.000, 18:31:22.007
78, -104.64, 79.61, 218.86, -3068.80, 0.000, 0.000, 0.000, 18:31:22.008
79, -110.74, 101.76, 233.26, -3161.86, 0.000, 0.000, 0.000, 18:31:22.022
80, -111.44, 108.46, 238.11, -3200.82, 0.000, 0.000, 0.000, 18:31:22.022
81, -118.99, 84.78, 233.57, -3051.92, 0.000, 0.000, 0.000, 18:31:22.037
82, -98.55, 86.28, 229.04, -3062.68, 0.000, 0.000, 0.000, 18:31:22.037
83, -107.05, 98.23, 227.59, -3158.41, 0.000, 0.000, 0.000, 18:31:22.038
84, -128.61, 91.22, 236.35, -3144.51, 0.000, 0.000, 0.000, 18:31:22.038
85, -116.99, 72.88, 221.64, -3111.95, 0.000, 0.000, 0.000, 18:31:22.052
86, -84.58, 83.57, 214.09, -3143.91, 0.000, 0.000, 0.000, 18:31:22.052
87, -109.06, 103.54, 228.38, -3162.61, 0.000, 0.000, 0.000, 18:31:22.067
88, -121.93, 101.96, 232.82, -3173.30, 0.000, 0.000, 0.000, 18:31:22.067
89, -108.10, 81.14, 220.99, -3123.21, 0.000, 0.000, 0.000, 18:31:22.067
90, -101.35, 90.18, 221.17, -3073.86, 0.000, 0.000, 0.000, 18:31:22.067
91, -107.53, 101.98, 228.53, -3147.10, 0.000, 0.000, 0.000, 18:31:22.082
92, -108.64, 101.57, 228.22, -3215.05, 0.000, 0.000, 0.000, 18:31:22.083
93, -104.69, 81.56, 226.45, -3113.76, 0.000, 0.000, 0.000, 18:31:22.097
94, -86.37, 91.15, 229.03, -3047.50, 0.000, 0.000, 0.000, 18:31:22.097
95, -104.32, 98.98, 227.18, -3170.13, 0.000, 0.000, 0.000, 18:31:22.097
96, -112.94, 106.20, 247.66, -3151.54, 0.000, 0.000, 0.000, 18:31:22.097
97, -100.05, 90.80, 230.66, -3084.97, 0.000, 0.000, 0.000, 18:31:22.112
98, -75.62, 93.80, 221.88, -3119.74, 0.000, 0.000, 0.000, 18:31:22.112
99, -110.25, 96.42, 227.72, -3129.79, 0.000, 0.000, 0.000, 18:31:22.126
100, -124.17, 101.99, 237.99, -3137.47, 0.000, 0.000, 0.000, 18:31:22.127
101, -98.90, 86.35, 234.90, -3088.57, 0.000, 0.000, 0.000, 18:31:22.127
102, -92.79, 89.52, 228.20, -3034.01, 0.000, 0.000, 0.000, 18:31:22.127
103, -109.19, 104.65, 230.24, -3148.30, 0.000, 0.000, 0.000, 18:31:22.142
104, -110.85, 100.35, 231.78, -3199.65, 0.000, 0.000, 0.000, 18:31:22.142
105, -113.67, 85.71, 233.11, -3062.23, 0.000, 0.000, 0.000, 18:31:22.156
106, -97.40, 81.72, 224.95, -3071.94, 0.000, 0.000, 0.000, 18:31:22.157
107, -111.57, 99.05, 229.23, -3154.59, 0.000, 0.000, 0.000, 18:31:22.157
108, -137.41, 86.58, 232.23, -3128.50, 0.000, 0.000, 0.000, 18:31:22.157
109, -112.09, 81.72, 232.02, -3054.70, 0.000, 0.000, 0.000, 18:31:22.187
110, -86.82, 88.70, 221.64, -3121.55, 0.000, 0.000, 0.000, 18:31:22.187
111, -112.58, 101.41, 232.64, -3138.27, 0.000, 0.000, 0.000, 18:31:22.187
112, -122.68, 101.00, 244.46, -3146.36, 0.000, 0.000, 0.000, 18:31:22.187
113, -104.56, 80.78, 231.67, -3086.41, 0.000, 0.000, 0.000, 18:31:22.188
114, -93.65, 81.42, 228.61, -3075.73, 0.000, 0.000, 0.000, 18:31:22.188
115, -101.28, 104.62, 240.02, -3165.57, 0.000, 0.000, 0.000, 18:31:22.202
116, -100.11, 98.60, 226.39, -3249.17, 0.000, 0.000, 0.000, 18:31:22.202
117, -107.89, 80.71, 237.39, -3088.70, 0.000, 0.000, 0.000, 18:31:22.216
118, -89.26, 85.03, 228.91, -3059.27, 0.000, 0.000, 0.000, 18:31:22.217
119, -95.20, 99.58, 236.42, -3163.10, 0.000, 0.000, 0.000, 18:31:22.217
120, -119.16, 84.92, 234.47, -3173.24, 0.000, 0.000, 0.000, 18:31:22.217
121, -105.49, 73.84, 229.60, -3106.21, 0.000, 0.000, 0.000, 18:31:22.232
122, -80.04, 88.67, 221.92, -3118.90, 0.000, 0.000, 0.000, 18:31:22.232
123, -104.79, 98.62, 233.47, -3149.51, 0.000, 0.000, 0.000, 18:31:22.247
124, -116.35, 99.89, 244.57, -3170.70, 0.000, 0.000, 0.000, 18:31:22.247
125, -90.14, 90.54, 240.91, -3118.86, 0.000, 0.000, 0.000, 18:31:22.247
126, -80.47, 90.87, 233.81, -3057.19, 0.000, 0.000, 0.000, 18:31:22.247
127, -93.18, 104.41, 239.73, -3145.23, 0.000, 0.000, 0.000, 18:31:22.262
128, -104.30, 100.90, 233.36, -3207.78, 0.000, 0.000, 0.000, 18:31:22.262
129, -106.95, 81.62, 236.67, -3060.74, 0.000, 0.000, 0.000, 18:31:22.277
130, -87.09, 92.84, 231.99, -3055.90, 0.000, 0.000, 0.000, 18:31:22.277
131, -89.41, 107.21, 241.02, -3146.31, 0.000, 0.000, 0.000, 18:31:22.277
132, -120.41, 98.39, 242.26, -3147.10, 0.000, 0.000, 0.000, 18:31:22.277
133, -99.16, 88.39, 239.98, -3085.19, 0.000, 0.000, 0.000, 18:31:22.292
134, -79.81, 87.51, 219.71, -3115.12, 0.000, 0.000, 0.000, 18:31:22.292
135, -104.98, 101.15, 237.53, -3123.76, 0.000, 0.000, 0.000, 18:31:22.307
136, -117.71, 95.99, 239.01, -3169.03, 0.000, 0.000, 0.000, 18:31:22.307
137, -92.90, 88.10, 233.67, -3105.03, 0.000, 0.000, 0.000, 18:31:22.307
138, -87.81, 84.18, 232.08, -3053.99, 0.000, 0.000, 0.000, 18:31:22.307
139, -105.48, 103.13, 234.08, -3152.45, 0.000, 0.000, 0.000, 18:31:22.322
140, -108.12, 101.76, 236.57, -3211.69, 0.000, 0.000, 0.000, 18:31:22.322
141, -110.67, 77.29, 228.97, -3071.41, 0.000, 0.000, 0.000, 18:31:22.337
142, -96.99, 83.39, 224.07, -3098.63, 0.000, 0.000, 0.000, 18:31:22.337
143, -92.17, 108.32, 240.11, -3161.80, 0.000, 0.000, 0.000, 18:31:22.337
144, -124.53, 95.10, 240.60, -3146.95, 0.000, 0.000, 0.000, 18:31:22.337
145, -118.44, 73.23, 225.50, -3086.69, 0.000, 0.000, 0.000, 18:31:22.352
146, -87.99, 88.73, 217.58, -3120.53, 0.000, 0.000, 0.000, 18:31:22.352
147, -113.06, 99.11, 233.32, -3129.04, 0.000, 0.000, 0.000, 18:31:22.367
148, -125.76, 95.39, 238.58, -3174.24, 0.000, 0.000, 0.000, 18:31:22.367
149, -114.28, 73.04, 215.86, -3118.21, 0.000, 0.000, 0.000, 18:31:22.367
150, -107.08, 75.85, 220.07, -3052.92, 0.000, 0.000, 0.000, 18:31:22.367
151, -113.20, 99.90, 229.46, -3131.02, 0.000, 0.000, 0.000, 18:31:22.382
152, -128.24, 91.81, 220.53, -3192.88, 0.000, 0.000, 0.000, 18:31:22.382
153, -120.16, 75.76, 221.01, -3086.29, 0.000, 0.000, 0.000, 18:31:22.397
154, -102.55, 71.01, 217.96, -3076.98, 0.000, 0.000, 0.000, 18:31:22.397
155, -111.50, 95.42, 230.19, -3116.48, 0.000, 0.000, 0.000, 18:31:22.397
156, -133.08, 93.83, 240.28, -3146.24, 0.000, 0.000, 0.000, 18:31:22.397
157, -108.76, 78.04, 236.17, -3073.66, 0.000, 0.000, 0.000, 18:31:22.412
158, -82.72, 83.87, 221.03, -3111.23, 0.000, 0.000, 0.000, 18:31:22.412
159, -107.68, 93.03, 231.02, -3152.91, 0.000, 0.000, 0.000, 18:31:22.427
160, -109.49, 100.76, 238.16, -3201.70, 0.000, 0.000, 0.000, 18:31:22.427
161, -94.89, 87.52, 228.37, -3134.52, 0.000, 0.000, 0.000, 18:31:22.427
162, -81.48, 91.84, 230.61, -3076.99, 0.000, 0.000, 0.000, 18:31:22.427
163, -85.63, 104.95, 240.50, -3151.19, 0.000, 0.000, 0.000, 18:31:22.442
164, -106.89, 102.17, 229.67, -3223.32, 0.000, 0.000, 0.000, 18:31:22.442
165, -98.41, 92.82, 242.48, -3099.23, 0.000, 0.000, 0.000, 18:31:22.457
166, -81.29, 95.03, 227.05, -3101.88, 0.000, 0.000, 0.000, 18:31:22.457
167, -91.26, 113.55, 231.42, -3171.06, 0.000, 0.000, 0.000, 18:31:22.457
168, -116.18, 104.71, 238.12, -3162.38, 0.000, 0.000, 0.000, 18:31:22.457
169, -101.67, 83.87, 227.89, -3094.19, 0.000, 0.000, 0.000, 18:31:22.472
170, -81.26, 95.68, 224.67, -3112.22, 0.000, 0.000, 0.000, 18:31:22.472
171, -105.06, 110.88, 239.58, -3113.32, 0.000, 0.000, 0.000, 18:31:22.501
172, -120.63, 105.82, 236.31, -3169.73, 0.000, 0.000, 0.000, 18:31:22.502
173, -107.57, 86.84, 223.46, -3108.99, 0.000, 0.000, 0.000, 18:31:22.502
174, -88.02, 95.52, 233.78, -3052.04, 0.000, 0.000, 0.000, 18:31:22.502
175, -103.51, 110.35, 233.61, -3147.60, 0.000, 0.000, 0.000, 18:31:22.503
176, -128.33, 106.76, 234.25, -3146.28, 0.000, 0.000, 0.000, 18:31:22.503
177, -112.57, 89.86, 228.65, -3075.24, 0.000, 0.000, 0.000, 18:31:22.504
178, -91.20, 85.55, 222.69, -3094.94, 0.000, 0.000, 0.000, 18:31:22.504
179, -80.38, 102.06, 199.00, -3294.68, 0.000, 0.000, 0.000, 18:31:22.517
180, -128.37, 92.67, 242.54, -3155.97, 0.000, 0.000, 0.000, 18:31:22.517
181, -103.34, 83.57, 236.44, -3087.14, 0.000, 0.000, 0.000, 18:31:22.532
182, -83.52, 86.62, 218.38, -3108.14, 0.000, 0.000, 0.000, 18:31:22.532
183, -111.13, 92.03, 225.91, -3135.59, 0.000, 0.000, 0.000, 18:31:22.547
184, -118.28, 97.55, 237.30, -3180.00, 0.000, 0.000, 0.000, 18:31:22.547
185, -103.61, 84.57, 228.31, -3126.60, 0.000, 0.000, 0.000, 18:31:22.547
186, -96.05, 87.57, 223.87, -3047.50, 0.000, 0.000, 0.000, 18:31:22.547
187, -97.24, 102.97, 242.25, -3142.56, 0.000, 0.000, 0.000, 18:31:22.562
188, -104.60, 102.62, 238.83, -3227.39, 0.000, 0.000, 0.000, 18:31:22.562
189, -101.63, 77.61, 238.18, -3117.62, 0.000, 0.000, 0.000, 18:31:22.577
190, -84.91, 79.87, 223.25, -3100.26, 0.000, 0.000, 0.000, 18:31:22.577
191, -93.75, 102.03, 238.28, -3148.73, 0.000, 0.000, 0.000, 18:31:22.577
192, -119.59, 98.90, 242.07, -3159.02, 0.000, 0.000, 0.000, 18:31:22.577
193, -97.01, 86.18, 241.05, -3120.56, 0.000, 0.000, 0.000, 18:31:22.592
194, -65.72, 101.76, 231.44, -3122.05, 0.000, 0.000, 0.000, 18:31:22.592
195, -96.52, 109.09, 239.60, -3129.02, 0.000, 0.000, 0.000, 18:31:22.607
196, -118.26, 108.25, 245.80, -3148.08, 0.000, 0.000, 0.000, 18:31:22.607
197, -100.96, 93.81, 235.99, -3083.48, 0.000, 0.000, 0.000, 18:31:22.607
198, -96.64, 83.00, 225.11, -3051.66, 0.000, 0.000, 0.000, 18:31:22.607
199, -105.87, 100.89, 231.85, -3166.83, 0.000, 0.000, 0.000, 18:31:22.622
200, -97.16, 112.20, 236.01, -3235.93, 0.000, 0.000, 0.000, 18:31:22.622
0, -106.63, 85.60, 235.97, -3072.12, 0.000, 0.000, 0.000, 18:31:22.622
1, -94.17, 88.88, 227.27, -3039.48, 0.000, 0.000, 0.000, 18:31:22.637
2, -95.87, 100.05, 225.26, -3184.23, 0.000, 0.000, 0.000, 18:31:22.637
3, -128.76, 99.97, 240.83, -3132.71, 0.000, 0.000, 0.000, 18:31:22.652
4, -108.37, 82.67, 233.61, -3083.75, 0.000, 0.000, 0.000, 18:31:22.652
5, -93.07, 79.17, 219.85, -3068.44, 0.000, 0.000, 0.000, 18:31:22.652
6, -110.08, 98.07, 231.75, -3119.12, 0.000, 0.000, 0.000, 18:31:22.652
7, -120.32, 98.33, 238.40, -3170.94, 0.000, 0.000, 0.000, 18:31:22.667
8, -99.84, 87.71, 230.01, -3129.01, 0.000, 0.000, 0.000, 18:31:22.667
9, -92.92, 82.54, 229.63, -3049.32, 0.000, 0.000, 0.000, 18:31:22.682
10, -110.79, 95.88, 226.97, -3153.35, 0.000, 0.000, 0.000, 18:31:22.682
11, -125.27, 93.17, 228.37, -3167.19, 0.000, 0.000, 0.000, 18:31:22.682
12, -113.65, 81.28, 232.86, -3072.78, 0.000, 0.000, 0.000, 18:31:22.682
13, -86.31, 84.55, 232.88, -3054.06, 0.000, 0.000, 0.000, 18:31:22.697
14, -91.53, 101.41, 232.30, -3178.61, 0.000, 0.000, 0.000, 18:31:22.697
15, -123.44, 98.61, 238.90, -3160.35, 0.000, 0.000, 0.000, 18:31:22.712
16, -102.87, 85.84, 239.73, -3088.43, 0.000, 0.000, 0.000, 18:31:22.712
17, -92.17, 81.32, 224.59, -3062.39, 0.000, 0.000, 0.000, 18:31:22.712
18, -106.53, 100.58, 238.32, -3123.69, 0.000, 0.000, 0.000, 18:31:22.712
19, -122.50, 102.08, 233.87, -3158.06, 0.000, 0.000, 0.000, 18:31:22.727
20, -99.47, 89.39, 224.49, -3135.70, 0.000, 0.000, 0.000, 18:31:22.727
21, -92.65, 85.38, 228.38, -3069.06, 0.000, 0.000, 0.000, 18:31:22.742
22, -100.85, 105.25, 231.35, -3148.42, 0.000, 0.000, 0.000, 18:31:22.742
23, -114.41, 99.63, 232.84, -3184.76, 0.000, 0.000, 0.000, 18:31:22.742
24, -109.07, 82.38, 234.42, -3074.13, 0.000, 0.000, 0.000, 18:31:22.742
25, -89.60, 88.41, 226.53, -3066.28, 0.000, 0.000, 0.000, 18:31:22.757
26, -89.85, 103.87, 228.61, -3176.96, 0.000, 0.000, 0.000, 18:31:22.757
27, -123.11, 98.99, 235.76, -3164.11, 0.000, 0.000, 0.000, 18:31:22.772
28, -103.76, 89.47, 231.28, -3082.36, 0.000, 0.000, 0.000, 18:31:22.772
29, -86.18, 90.43, 226.82, -3067.95, 0.000, 0.000, 0.000, 18:31:22.772
30, -106.79, 101.74, 237.62, -3122.00, 0.000, 0.000, 0.000, 18:31:22.772
31, -116.36, 102.71, 236.56, -3185.29, 0.000, 0.000, 0.000, 18:31:22.787
32, -89.82, 94.01, 232.21, -3139.73, 0.000, 0.000, 0.000, 18:31:22.787
33, -95.03, 82.50, 227.50, -3044.41, 0.000, 0.000, 0.000, 18:31:22.819
34, -103.35, 102.16, 237.90, -3109.39, 0.000, 0.000, 0.000, 18:31:22.819
35, -120.75, 101.96, 237.36, -3170.03, 0.000, 0.000, 0.000, 18:31:22.820
36, -114.58, 78.95, 228.92, -3068.64, 0.000, 0.000, 0.000, 18:31:22.820
37, -89.34, 88.70, 227.67, -3070.09, 0.000, 0.000, 0.000, 18:31:22.820
38, -104.08, 102.71, 235.39, -3108.28, 0.000, 0.000, 0.000, 18:31:22.820
39, -125.27, 98.13, 242.33, -3147.27, 0.000, 0.000, 0.000, 18:31:22.820
40, -105.91, 82.33, 236.99, -3109.05, 0.000, 0.000, 0.000, 18:31:22.820
41, -55.17, 90.37, 215.81, -3194.56, 0.000, 0.000, 0.000, 18:31:22.832
42, -113.15, 100.40, 239.78, -3103.23, 0.000, 0.000, 0.000, 18:31:22.832
43, -125.97, 96.40, 234.54, -3131.96, 0.000, 0.000, 0.000, 18:31:22.847
44, -113.10, 81.86, 227.89, -3097.14, 0.000, 0.000, 0.000, 18:31:22.847
45, -88.36, 90.89, 227.63, -3038.68, 0.000, 0.000, 0.000, 18:31:22.862
46, -96.43, 106.55, 233.28, -3142.04, 0.000, 0.000, 0.000, 18:31:22.862
47, -115.10, 109.62, 235.16, -3162.46, 0.000, 0.000, 0.000, 18:31:22.862
48, -110.59, 84.77, 232.31, -3093.73, 0.000, 0.000, 0.000, 18:31:22.862
49, -92.44, 80.01, 220.01, -3119.27, 0.000, 0.000, 0.000, 18:31:22.877
50, -89.61, 109.06, 223.77, -3196.54, 0.000, 0.000, 0.000, 18:31:22.877
51, -119.45, 102.04, 240.80, -3151.19, 0.000, 0.000, 0.000, 18:31:22.892
52, -102.81, 83.48, 236.77, -3122.55, 0.000, 0.000, 0.000, 18:31:22.892
53, -88.11, 89.45, 223.95, -3058.59, 0.000, 0.000, 0.000, 18:31:22.892
54, -110.01, 97.12, 229.29, -3122.18, 0.000, 0.000, 0.000, 18:31:22.892
55, -118.05, 97.44, 235.49, -3181.17, 0.000, 0.000, 0.000, 18:31:22.907
56, -98.68, 82.27, 221.00, -3133.52, 0.000, 0.000, 0.000, 18:31:22.907
57, -95.61, 88.76, 231.11, -3042.74, 0.000, 0.000, 0.000, 18:31:22.922
58, -102.93, 107.22, 236.89, -3116.22, 0.000, 0.000, 0.000, 18:31:22.922
59, -101.45, 110.62, 250.53, -3153.59, 0.000, 0.000, 0.000, 18:31:22.922
60, -104.98, 87.94, 236.23, -3060.38, 0.000, 0.000, 0.000, 18:31:22.923
61, -76.75, 89.19, 236.95, -3098.19, 0.000, 0.000, 0.000, 18:31:22.937
62, -80.05, 106.10, 229.12, -3183.35, 0.000, 0.000, 0.000, 18:31:22.937
63, -122.71, 98.21, 239.91, -3144.55, 0.000, 0.000, 0.000, 18:31:22.952
64, -104.57, 86.07, 238.58, -3079.62, 0.000, 0.000, 0.000, 18:31:22.952
65, -86.71, 86.67, 231.71, -3068.21, 0.000, 0.000, 0.000, 18:31:22.952
66, -108.49, 102.49, 236.38, -3093.94, 0.000, 0.000, 0.000, 18:31:22.952
67, -115.12, 103.55, 247.37, -3142.78, 0.000, 0.000, 0.000, 18:31:22.967
68, -93.89, 88.41, 233.15, -3122.31, 0.000, 0.000, 0.000, 18:31:22.967
69, -88.65, 90.61, 230.99, -3055.77, 0.000, 0.000, 0.000, 18:31:22.982
70, -92.96, 111.64, 239.85, -3154.64, 0.000, 0.000, 0.000, 18:31:22.982
71, -105.15, 103.98, 236.80, -3199.61, 0.000, 0.000, 0.000, 18:31:22.982
72, -108.85, 83.78, 232.67, -3102.09, 0.000, 0.000, 0.000, 18:31:22.982
73, -97.21, 80.25, 222.98, -3077.83, 0.000, 0.000, 0.000, 18:31:22.997
74, -92.34, 99.01, 220.66, -3198.07, 0.000, 0.000, 0.000, 18:31:22.997
75, -116.37, 100.37, 237.54, -3142.88, 0.000, 0.000, 0.000, 18:31:23.012
76, -114.23, 74.57, 223.57, -3100.84, 0.000, 0.000, 0.000, 18:31:23.012
77, -83.52, 85.77, 225.42, -3097.45, 0.000, 0.000, 0.000, 18:31:23.012
78, -105.32, 99.76, 231.19, -3145.03, 0.000, 0.000, 0.000, 18:31:23.012
79, -119.41, 94.21, 230.33, -3177.59, 0.000, 0.000, 0.000, 18:31:23.027
80, -92.37, 90.14, 225.58, -3140.57, 0.000, 0.000, 0.000, 18:31:23.027
81, -93.50, 80.48, 227.23, -3058.36, 0.000, 0.000, 0.000, 18:31:23.042
82, -97.67, 101.18, 233.40, -3155.05, 0.000, 0.000, 0.000, 18:31:23.042
83, -117.45, 101.09, 233.04, -3200.22, 0.000, 0.000, 0.000, 18:31:23.042
84, -112.65, 85.85, 234.88, -3069.16, 0.000, 0.000, 0.000, 18:31:23.042
85, -91.95, 84.32, 227.37, -3057.35, 0.000, 0.000, 0.000, 18:31:23.057
86, -91.97, 105.24, 227.13, -3190.62, 0.000, 0.000, 0.000, 18:31:23.057
87, -132.88, 97.74, 239.19, -3143.28, 0.000, 0.000, 0.000, 18:31:23.072
88, -115.26, 81.95, 233.03, -3088.33, 0.000, 0.000, 0.000, 18:31:23.072
89, -96.70, 79.30, 221.04, -3057.25, 0.000, 0.000, 0.000, 18:31:23.072
90, -101.58, 99.77, 241.56, -3101.83, 0.000, 0.000, 0.000, 18:31:23.072
91, -115.08, 98.54, 236.20, -3188.70, 0.000, 0.000, 0.000, 18:31:23.087
92, -95.32, 87.32, 228.00, -3155.67, 0.000, 0.000, 0.000, 18:31:23.087
93, -92.31, 80.34, 224.26, -3057.77, 0.000, 0.000, 0.000, 18:31:23.102
94, -103.08, 94.19, 230.17, -3141.35, 0.000, 0.000, 0.000, 18:31:23.102
95, -118.30, 89.98, 237.11, -3173.21, 0.000, 0.000, 0.000, 18:31:23.102
96, -107.34, 91.29, 237.92, -3079.63, 0.000, 0.000, 0.000, 18:31:23.102
97, -88.66, 89.38, 228.12, -3060.82, 0.000, 0.000, 0.000, 18:31:23.117
98, -81.87, 107.70, 233.95, -3179.34, 0.000, 0.000, 0.000, 18:31:23.117
99, -122.56, 99.86, 235.23, -3143.08, 0.000, 0.000, 0.000, 18:31:23.147
100, -115.08, 87.12, 224.12, -3096.72, 0.000, 0.000, 0.000, 18:31:23.147
101, -93.36, 91.17, 220.89, -3079.61, 0.000, 0.000, 0.000, 18:31:23.147
102, -109.03, 104.99, 232.10, -3131.32, 0.000, 0.000, 0.000, 18:31:23.147
103, -123.78, 95.40, 232.57, -3205.66, 0.000, 0.000, 0.000, 18:31:23.148
104, -106.83, 91.06, 231.54, -3105.56, 0.000, 0.000, 0.000, 18:31:23.148
105, -88.70, 89.67, 226.50, -3083.36, 0.000, 0.000, 0.000, 18:31:23.148
106, -104.09, 97.71, 225.26, -3167.27, 0.000, 0.000, 0.000, 18:31:23.148
107, -86.89, 111.04, 215.81, -3303.42, 0.000, 0.000, 0.000, 18:31:23.162
108, -124.05, 84.73, 236.46, -3062.60, 0.000, 0.000, 0.000, 18:31:23.162
109, -101.83, 79.27, 224.52, -3043.85, 0.000, 0.000, 0.000, 18:31:23.177
110, -102.89, 104.41, 231.78, -3137.08, 0.000, 0.000, 0.000, 18:31:23.177
111, -130.34, 96.00, 238.61, -3140.21, 0.000, 0.000, 0.000, 18:31:23.192
112, -111.54, 79.96, 237.81, -3078.87, 0.000, 0.000, 0.000, 18:31:23.192
113, -92.76, 79.66, 219.92, -3062.97, 0.000, 0.000, 0.000, 18:31:23.192
114, -107.59, 95.08, 236.10, -3116.14, 0.000, 0.000, 0.000, 18:31:23.192
115, -122.51, 94.74, 239.27, -3151.90, 0.000, 0.000, 0.000, 18:31:23.207
116, -100.48, 86.36, 233.56, -3141.47, 0.000, 0.000, 0.000, 18:31:23.207
117, -91.45, 81.05, 229.45, -3034.45, 0.000, 0.000, 0.000, 18:31:23.224
118, -112.17, 88.35, 229.15, -3123.78, 0.000, 0.000, 0.000, 18:31:23.224
119, -120.75, 91.67, 242.35, -3167.60, 0.000, 0.000, 0.000, 18:31:23.224
120, -126.16, 72.64, 227.99, -3076.24, 0.000, 0.000, 0.000, 18:31:23.224
121, -103.11, 69.37, 225.71, -3069.54, 0.000, 0.000, 0.000, 18:31:23.237
122, -92.02, 93.81, 229.21, -3195.66, 0.000, 0.000, 0.000, 18:31:23.237
123, -121.11, 96.03, 236.03, -3167.24, 0.000, 0.000, 0.000, 18:31:23.252
124, -110.72, 77.71, 232.14, -3089.05, 0.000, 0.000, 0.000, 18:31:23.252
125, -93.33, 76.90, 223.34, -3071.56, 0.000, 0.000, 0.000, 18:31:23.252
126, -112.19, 87.24, 224.99, -3147.87, 0.000, 0.000, 0.000, 18:31:23.252
127, -110.73, 102.19, 246.67, -3171.88, 0.000, 0.000, 0.000, 18:31:23.267
128, -93.67, 84.79, 231.16, -3158.21, 0.000, 0.000, 0.000, 18:31:23.267
129, -90.44, 77.10, 225.23, -3072.16, 0.000, 0.000, 0.000, 18:31:23.282
130, -96.94, 94.09, 227.81, -3158.94, 0.000, 0.000, 0.000, 18:31:23.282
131, -113.99, 96.43, 237.06, -3193.71, 0.000, 0.000, 0.000, 18:31:23.282
132, -110.87, 78.90, 232.44, -3112.32, 0.000, 0.000, 0.000, 18:31:23.282
133, -74.49, 87.64, 236.76, -3096.10, 0.000, 0.000, 0.000, 18:31:23.297
134, -76.60, 103.12, 235.07, -3190.48, 0.000, 0.000, 0.000, 18:31:23.297
135, -110.92, 79.48, 251.32, -3181.70, 0.000, 0.000, 0.000, 18:31:23.312
136, -108.14, 77.70, 232.20, -3127.47, 0.000, 0.000, 0.000, 18:31:23.312
137, -85.97, 92.59, 215.71, -3093.86, 0.000, 0.000, 0.000, 18:31:23.312
138, -100.49, 96.78, 237.19, -3138.93, 0.000, 0.000, 0.000, 18:31:23.312
139, -122.57, 97.44, 241.62, -3175.48, 0.000, 0.000, 0.000, 18:31:23.327
140, -101.47, 81.53, 227.27, -3152.35, 0.000, 0.000, 0.000, 18:31:23.327
141, -93.64, 82.70, 237.78, -3027.16, 0.000, 0.000, 0.000, 18:31:23.341
142, -94.54, 103.37, 239.30, -3146.56, 0.000, 0.000, 0.000, 18:31:23.342
143, -111.68, 99.12, 233.41, -3209.81, 0.000, 0.000, 0.000, 18:31:23.342
144, -114.42, 76.52, 227.43, -3106.33, 0.000, 0.000, 0.000, 18:31:23.342
145, -95.10, 76.87, 225.46, -3069.00, 0.000, 0.000, 0.000, 18:31:23.357
146, -90.51, 103.12, 225.44, -3189.70, 0.000, 0.000, 0.000, 18:31:23.357
147, -126.59, 91.38, 234.78, -3171.18, 0.000, 0.000, 0.000, 18:31:23.372
148, -110.68, 80.49, 228.04, -3110.28, 0.000, 0.000, 0.000, 18:31:23.372
149, -94.84, 70.12, 213.86, -3096.00, 0.000, 0.000, 0.000, 18:31:23.372
150, -102.88, 90.70, 225.19, -3137.65, 0.000, 0.000, 0.000, 18:31:23.372
151, -114.81, 92.87, 236.04, -3201.49, 0.000, 0.000, 0.000, 18:31:23.387
152, -95.45, 79.14, 220.00, -3186.05, 0.000, 0.000, 0.000, 18:31:23.387
153, -95.86, 72.18, 219.86, -3086.83, 0.000, 0.000, 0.000, 18:31:23.402
154, -102.68, 95.98, 228.98, -3163.34, 0.000, 0.000, 0.000, 18:31:23.402
155, -114.62, 97.60, 235.66, -3196.86, 0.000, 0.000, 0.000, 18:31:23.402
156, -111.69, 81.51, 235.64, -3102.50, 0.000, 0.000, 0.000, 18:31:23.402
157, -99.05, 72.57, 218.39, -3087.46, 0.000, 0.000, 0.000, 18:31:23.417
158, -96.27, 101.70, 219.52, -3201.83, 0.000, 0.000, 0.000, 18:31:23.417
159, -122.69, 98.43, 235.05, -3172.51, 0.000, 0.000, 0.000, 18:31:23.432
160, -109.94, 84.13, 229.67, -3106.90, 0.000, 0.000, 0.000, 18:31:23.432
161, -90.63, 73.75, 219.22, -3083.28, 0.000, 0.000, 0.000, 18:31:23.432
162, -100.80, 97.35, 233.34, -3131.51, 0.000, 0.000, 0.000, 18:31:23.432
163, -124.58, 91.46, 238.51, -3161.06, 0.000, 0.000, 0.000, 18:31:23.462
164, -101.20, 77.64, 224.36, -3165.87, 0.000, 0.000, 0.000, 18:31:23.462
165, -102.75, 74.74, 225.96, -3045.96, 0.000, 0.000, 0.000, 18:31:23.462
166, -103.97, 92.58, 234.11, -3135.27, 0.000, 0.000, 0.000, 18:31:23.462
167, -130.03, 87.22, 228.58, -3160.98, 0.000, 0.000, 0.000, 18:31:23.463
168, -112.63, 75.23, 232.84, -3080.88, 0.000, 0.000, 0.000, 18:31:23.463
169, -89.87, 73.63, 227.82, -3067.81, 0.000, 0.000, 0.000, 18:31:23.477
170, -75.70, 100.76, 222.35, -3211.80, 0.000, 0.000, 0.000, 18:31:23.477
171, -115.37, 101.47, 247.27, -3144.71, 0.000, 0.000, 0.000, 18:31:23.492
172, -105.28, 80.46, 238.77, -3075.32, 0.000, 0.000, 0.000, 18:31:23.492
173, -82.39, 82.88, 231.67, -3082.77, 0.000, 0.000, 0.000, 18:31:23.492
174, -97.14, 97.71, 237.23, -3137.94, 0.000, 0.000, 0.000, 18:31:23.492
175, -120.01, 100.01, 242.93, -3175.34, 0.000, 0.000, 0.000, 18:31:23.507
176, -99.89, 81.92, 230.48, -3141.72, 0.000, 0.000, 0.000, 18:31:23.507
177, -100.15, 71.47, 222.44, -3069.17, 0.000, 0.000, 0.000, 18:31:23.521
178, -104.15, 92.51, 226.87, -3145.18, 0.000, 0.000, 0.000, 18:31:23.522
179, -115.51, 97.06, 231.05, -3200.82, 0.000, 0.000, 0.000, 18:31:23.522
180, -112.46, 85.35, 232.82, -3093.58, 0.000, 0.000, 0.000, 18:31:23.522
181, -90.05, 84.54, 231.65, -3078.01, 0.000, 0.000, 0.000, 18:31:23.537
182, -93.25, 102.04, 224.91, -3185.52, 0.000, 0.000, 0.000, 18:31:23.537
183, -126.27, 93.05, 234.65, -3164.79, 0.000, 0.000, 0.000, 18:31:23.552
184, -119.94, 79.46, 226.90, -3123.49, 0.000, 0.000, 0.000, 18:31:23.552
185, -84.68, 85.71, 222.67, -3079.27, 0.000, 0.000, 0.000, 18:31:23.552
186, -111.14, 95.56, 233.36, -3108.40, 0.000, 0.000, 0.000, 18:31:23.552
187, -127.69, 98.24, 241.57, -3154.23, 0.000, 0.000, 0.000, 18:31:23.567
188, -100.19, 92.28, 232.65, -3138.15, 0.000, 0.000, 0.000, 18:31:23.567
189, -100.01, 75.89, 221.82, -3050.36, 0.000, 0.000, 0.000, 18:31:23.581
190, -105.31, 96.72, 230.64, -3143.49, 0.000, 0.000, 0.000, 18:31:23.582
191, -117.11, 95.11, 231.28, -3179.14, 0.000, 0.000, 0.000, 18:31:23.582
192, -117.43, 78.63, 226.91, -3112.05, 0.000, 0.000, 0.000, 18:31:23.582
193, -93.20, 86.32, 224.77, -3080.47, 0.000, 0.000, 0.000, 18:31:23.597
194, -89.75, 104.43, 224.75, -3214.08, 0.000, 0.000, 0.000, 18:31:23.599
195, -121.57, 95.31, 232.29, -3205.93, 0.000, 0.000, 0.000, 18:31:23.612
196, -111.19, 86.40, 223.67, -3116.48, 0.000, 0.000, 0.000, 18:31:23.612
197, -93.16, 82.88, 216.42, -3098.05, 0.000, 0.000, 0.000, 18:31:23.612
198, -104.05, 96.43, 226.44, -3127.59, 0.000, 0.000, 0.000, 18:31:23.613
199, -121.02, 92.96, 234.83, -3194.86, 0.000, 0.000, 0.000, 18:31:23.627
200, -107.83, 81.90, 213.69, -3147.47, 0.000, 0.000, 0.000, 18:31:23.627
0, -102.70, 79.31, 217.25, -3057.26, 0.000, 0.000, 0.000, 18:31:23.627
1, -111.39, 90.94, 220.46, -3128.06, 0.000, 0.000, 0.000, 18:31:23.642
2, -111.55, 103.88, 230.86, -3209.50, 0.000, 0.000, 0.000, 18:31:23.642
3, -107.19, 94.95, 242.51, -3073.93, 0.000, 0.000, 0.000, 18:31:23.657
4, -102.73, 77.96, 225.17, -3076.33, 0.000, 0.000, 0.000, 18:31:23.657
5, -97.81, 83.35, 229.16, -3172.21, 0.000, 0.000, 0.000, 18:31:23.657
6, -113.43, 98.40, 248.42, -3154.55, 0.000, 0.000, 0.000, 18:31:23.657
7, -101.30, 90.76, 241.62, -3085.91, 0.000, 0.000, 0.000, 18:31:23.672
8, -75.26, 95.02, 223.46, -3103.96, 0.000, 0.000, 0.000, 18:31:23.672
9, -99.84, 100.91, 233.02, -3133.99, 0.000, 0.000, 0.000, 18:31:23.687
10, -114.41, 106.21, 246.63, -3166.91, 0.000, 0.000, 0.000, 18:31:23.687
11, -103.37, 89.12, 239.42, -3101.88, 0.000, 0.000, 0.000, 18:31:23.687
12, -91.49, 79.96, 226.34, -3035.30, 0.000, 0.000, 0.000, 18:31:23.688
13, -97.08, 94.95, 236.36, -3160.23, 0.000, 0.000, 0.000, 18:31:23.702
14, -110.91, 97.33, 228.83, -3223.07, 0.000, 0.000, 0.000, 18:31:23.702
15, -113.49, 80.57, 232.71, -3084.18, 0.000, 0.000, 0.000, 18:31:23.717
16, -91.72, 87.69, 229.45, -3075.35, 0.000, 0.000, 0.000, 18:31:23.717
17, -91.02, 101.61, 233.91, -3149.51, 0.000, 0.000, 0.000, 18:31:23.717
18, -129.10, 90.50, 235.71, -3152.43, 0.000, 0.000, 0.000, 18:31:23.717
19, -108.80, 80.78, 238.06, -3099.37, 0.000, 0.000, 0.000, 18:31:23.732
20, -74.13, 88.38, 228.49, -3110.71, 0.000, 0.000, 0.000, 18:31:23.732
21, -96.79, 98.11, 232.05, -3135.18, 0.000, 0.000, 0.000, 18:31:23.747
22, -117.13, 100.94, 236.91, -3170.61, 0.000, 0.000, 0.000, 18:31:23.747
23, -116.05, 81.87, 223.47, -3104.90, 0.000, 0.000, 0.000, 18:31:23.747
24, -100.48, 83.21, 227.78, -3053.29, 0.000, 0.000, 0.000, 18:31:23.747
25, -108.86, 95.61, 230.31, -3135.61, 0.000, 0.000, 0.000, 18:31:23.777
26, -111.78, 101.74, 228.30, -3241.53, 0.000, 0.000, 0.000, 18:31:23.777
27, -113.66, 78.81, 235.41, -3089.61, 0.000, 0.000, 0.000, 18:31:23.777
28, -100.02, 72.19, 220.56, -3080.59, 0.000, 0.000, 0.000, 18:31:23.777
29, -108.96, 98.04, 225.57, -3130.41, 0.000, 0.000, 0.000, 18:31:23.778
30, -126.55, 99.75, 240.34, -3143.67, 0.000, 0.000, 0.000, 18:31:23.778
31, -109.43, 85.82, 236.46, -3107.95, 0.000, 0.000, 0.000, 18:31:23.792
32, -71.16, 88.86, 217.18, -3141.65, 0.000, 0.000, 0.000, 18:31:23.792
33, -106.86, 94.68, 233.24, -3123.14, 0.000, 0.000, 0.000, 18:31:23.807
34, -119.11, 99.62, 241.87, -3162.76, 0.000, 0.000, 0.000, 18:31:23.807
35, -109.09, 81.63, 236.51, -3115.79, 0.000, 0.000, 0.000, 18:31:23.807
36, -79.65, 77.40, 240.75, -3062.62, 0.000, 0.000, 0.000, 18:31:23.807
37, -87.95, 101.11, 243.89, -3128.85, 0.000, 0.000, 0.000, 18:31:23.822
38, -104.48, 104.92, 244.97, -3184.00, 0.000, 0.000, 0.000, 18:31:23.822
39, -103.13, 88.34, 245.26, -3081.86, 0.000, 0.000, 0.000, 18:31:23.837
40, -84.65, 80.24, 237.76, -3074.14, 0.000, 0.000, 0.000, 18:31:23.837
41, -85.70, 101.35, 236.73, -3143.33, 0.000, 0.000, 0.000, 18:31:23.837
42, -121.21, 92.06, 240.78, -3150.75, 0.000, 0.000, 0.000, 18:31:23.837
43, -106.64, 81.63, 236.52, -3125.61, 0.000, 0.000, 0.000, 18:31:23.852
44, -76.80, 83.98, 221.81, -3116.07, 0.000, 0.000, 0.000, 18:31:23.852
45, -102.25, 97.87, 233.68, -3124.79, 0.000, 0.000, 0.000, 18:31:23.867
46, -119.51, 98.12, 238.44, -3172.91, 0.000, 0.000, 0.000, 18:31:23.867
47, -107.19, 84.08, 224.97, -3137.93, 0.000, 0.000, 0.000, 18:31:23.867
48, -94.80, 83.09, 224.52, -3071.65, 0.000, 0.000, 0.000, 18:31:23.867
49, -99.88, 90.01, 225.16, -3160.33, 0.000, 0.000, 0.000, 18:31:23.882
50, -105.86, 103.97, 224.93, -3224.06, 0.000, 0.000, 0.000, 18:31:23.882
51, -123.42, 79.41, 222.59, -3111.70, 0.000, 0.000, 0.000, 18:31:23.897
52, -92.60, 74.12, 218.93, -3090.85, 0.000, 0.000, 0.000, 18:31:23.897
53, -99.16, 93.99, 218.74, -3177.85, 0.000, 0.000, 0.000, 18:31:23.897
54, -119.69, 95.41, 232.83, -3207.86, 0.000, 0.000, 0.000, 18:31:23.897
55, -116.75, 81.00, 228.93, -3111.07, 0.000, 0.000, 0.000, 18:31:23.912
56, -85.55, 80.12, 218.27, -3096.51, 0.000, 0.000, 0.000, 18:31:23.912
57, -112.54, 91.05, 228.11, -3100.75, 0.000, 0.000, 0.000, 18:31:23.927
58, -135.23, 91.80, 232.59, -3139.01, 0.000, 0.000, 0.000, 18:31:23.927
59, -117.66, 80.04, 229.12, -3107.17, 0.000, 0.000, 0.000, 18:31:23.927
60, -102.85, 74.62, 226.34, -3054.73, 0.000, 0.000, 0.000, 18:31:23.927
61, -105.11, 91.03, 227.70, -3144.73, 0.000, 0.000, 0.000, 18:31:23.942
62, -113.55, 99.24, 229.96, -3198.59, 0.000, 0.000, 0.000, 18:31:23.942
63, -123.71, 73.77, 227.20, -3067.52, 0.000, 0.000, 0.000, 18:31:23.957
64, -99.35, 81.78, 229.22, -3064.85, 0.000, 0.000, 0.000, 18:31:23.957
65, -104.38, 92.13, 230.71, -3134.24, 0.000, 0.000, 0.000, 18:31:23.957
66, -131.35, 93.18, 238.70, -3152.63, 0.000, 0.000, 0.000, 18:31:23.957
67, -113.75, 78.88, 237.07, -3084.40, 0.000, 0.000, 0.000, 18:31:23.972
68, -82.75, 87.82, 226.05, -3107.18, 0.000, 0.000, 0.000, 18:31:23.972
69, -99.00, 100.62, 233.07, -3122.63, 0.000, 0.000, 0.000, 18:31:23.987
70, -124.50, 93.31, 237.31, -3160.58, 0.000, 0.000, 0.000, 18:31:23.987
71, -103.85, 87.79, 241.09, -3127.49, 0.000, 0.000, 0.000, 18:31:23.987
72, -87.16, 85.35, 231.06, -3064.42, 0.000, 0.000, 0.000, 18:31:23.987
73, -92.31, 99.49, 234.38, -3163.68, 0.000, 0.000, 0.000, 18:31:24.002
74, -102.07, 105.67, 228.40, -3240.99, 0.000, 0.000, 0.000, 18:31:24.002
75, -106.18, 83.01, 231.28, -3120.33, 0.000, 0.000, 0.000, 18:31:24.017
76, -89.38, 80.38, 222.47, -3087.29, 0.000, 0.000, 0.000, 18:31:24.017
77, -89.74, 101.86, 234.98, -3139.35, 0.000, 0.000, 0.000, 18:31:24.017
78, -120.48, 97.18, 241.28, -3162.94, 0.000, 0.000, 0.000, 18:31:24.017
79, -111.11, 81.28, 225.44, -3120.82, 0.000, 0.000, 0.000, 18:31:24.032
80, -79.50, 84.57, 212.05, -3142.02, 0.000, 0.000, 0.000, 18:31:24.032
81, -104.96, 91.69, 224.76, -3151.63, 0.000, 0.000, 0.000, 18:31:24.047
82, -118.93, 103.27, 237.25, -3209.42, 0.000, 0.000, 0.000, 18:31:24.047
83, -110.03, 87.21, 228.51, -3105.23, 0.000, 0.000, 0.000, 18:31:24.047
84, -99.07, 74.97, 220.22, -3092.51, 0.000, 0.000, 0.000, 18:31:24.047
85, -97.34, 97.58, 232.17, -3133.32, 0.000, 0.000, 0.000, 18:31:24.062
86, -117.02, 97.44, 227.69, -3208.46, 0.000, 0.000, 0.000, 18:31:24.062
87, -124.09, 75.98, 232.07, -3095.76, 0.000, 0.000, 0.000, 18:31:24.077
88, -98.39, 73.98, 223.53, -3084.46, 0.000, 0.000, 0.000, 18:31:24.077
89, -99.60, 92.42, 227.92, -3153.75, 0.000, 0.000, 0.000, 18:31:24.077
90, -125.58, 98.66, 236.55, -3155.34, 0.000, 0.000, 0.000, 18:31:24.077
91, -117.63, 81.16, 233.28, -3101.83, 0.000, 0.000, 0.000, 18:31:24.107
92, -87.39, 83.87, 220.82, -3090.58, 0.000, 0.000, 0.000, 18:31:24.107
93, -106.92, 94.06, 231.41, -3113.86, 0.000, 0.000, 0.000, 18:31:24.107
94, -113.24, 103.26, 245.10, -3192.53, 0.000, 0.000, 0.000, 18:31:24.107
95, -110.71, 83.53, 227.92, -3119.95, 0.000, 0.000, 0.000, 18:31:24.108
96, -92.30, 85.46, 224.13, -3075.33, 0.000, 0.000, 0.000, 18:31:24.108
97, -92.64, 106.44, 234.64, -3149.40, 0.000, 0.000, 0.000, 18:31:24.122
98, -88.88, 115.40, 230.08, -3272.32, 0.000, 0.000, 0.000, 18:31:24.122
99, -111.88, 91.15, 240.51, -3101.05, 0.000, 0.000, 0.000, 18:31:24.137
100, -92.63, 82.50, 230.69, -3052.45, 0.000, 0.000, 0.000, 18:31:24.137
101, -102.84, 98.53, 233.17, -3120.19, 0.000, 0.000, 0.000, 18:31:24.137
102, -121.29, 104.11, 242.62, -3130.06, 0.000, 0.000, 0.000, 18:31:24.137
103, -114.35, 77.14, 234.99, -3107.75, 0.000, 0.000, 0.000, 18:31:24.152
104, -75.70, 94.41, 225.53, -3083.82, 0.000, 0.000, 0.000, 18:31:24.152
105, -98.92, 98.39, 234.45, -3118.71, 0.000, 0.000, 0.000, 18:31:24.167
106, -120.35, 98.97, 236.64, -3171.85, 0.000, 0.000, 0.000, 18:31:24.167
107, -111.80, 80.17, 227.23, -3116.47, 0.000, 0.000, 0.000, 18:31:24.167
108, -100.61, 82.89, 219.38, -3051.47, 0.000, 0.000, 0.000, 18:31:24.167
109, -108.11, 93.71, 221.95, -3144.69, 0.000, 0.000, 0.000, 18:31:24.182
110, -109.26, 103.41, 230.24, -3200.02, 0.000, 0.000, 0.000, 18:31:24.182
111, -117.44, 84.91, 235.76, -3072.99, 0.000, 0.000, 0.000, 18:31:24.197
112, -94.44, 88.96, 230.35, -3057.03, 0.000, 0.000, 0.000, 18:31:24.197
113, -95.49, 104.56, 237.35, -3154.01, 0.000, 0.000, 0.000, 18:31:24.197
114, -121.99, 104.75, 238.49, -3171.19, 0.000, 0.000, 0.000, 18:31:24.197
115, -118.56, 84.27, 226.71, -3102.41, 0.000, 0.000, 0.000, 18:31:24.212
116, -79.64, 84.09, 223.62, -3115.17, 0.000, 0.000, 0.000, 18:31:24.212
117, -105.72, 93.42, 234.36, -3105.55, 0.000, 0.000, 0.000, 18:31:24.226
118, -124.19, 94.33, 238.53, -3179.27, 0.000, 0.000, 0.000, 18:31:24.227
119, -118.15, 82.78, 225.13, -3128.66, 0.000, 0.000, 0.000, 18:31:24.227
120, -98.51, 80.74, 226.22, -3053.68, 0.000, 0.000, 0.000, 18:31:24.227
121, -92.01, 102.57, 234.42, -3139.87, 0.000, 0.000, 0.000, 18:31:24.242
122, -111.45, 96.28, 223.66, -3237.31, 0.000, 0.000, 0.000, 18:31:24.242
123, -120.33, 76.16, 230.79, -3097.18, 0.000, 0.000, 0.000, 18:31:24.257
124, -95.11, 82.13, 227.67, -3080.20, 0.000, 0.000, 0.000, 18:31:24.257
125, -99.89, 91.95, 223.98, -3168.32, 0.000, 0.000, 0.000, 18:31:24.257
126, -121.41, 102.90, 233.55, -3178.75, 0.000, 0.000, 0.000, 18:31:24.257
127, -117.02, 86.34, 232.51, -3102.65, 0.000, 0.000, 0.000, 18:31:24.272
128, -81.28, 87.20, 226.29, -3102.11, 0.000, 0.000, 0.000, 18:31:24.272
129, -105.18, 100.20, 234.74, -3099.64, 0.000, 0.000, 0.000, 18:31:24.287
130, -123.13, 94.79, 237.90, -3187.69, 0.000, 0.000, 0.000, 18:31:24.287
131, -112.09, 84.50, 228.26, -3123.67, 0.000, 0.000, 0.000, 18:31:24.287
132, -98.05, 76.42, 219.08, -3082.80, 0.000, 0.000, 0.000, 18:31:24.287
133, -97.27, 103.42, 230.41, -3142.61, 0.000, 0.000, 0.000, 18:31:24.302
134, -111.52, 105.65, 221.82, -3237.96, 0.000, 0.000, 0.000, 18:31:24.302
135, -122.74, 81.95, 228.29, -3103.15, 0.000, 0.000, 0.000, 18:31:24.317
136, -102.34, 81.33, 226.56, -3065.99, 0.000, 0.000, 0.000, 18:31:24.317
137, -100.19, 97.72, 231.57, -3121.78, 0.000, 0.000, 0.000, 18:31:24.317
138, -125.08, 102.02, 237.20, -3157.98, 0.000, 0.000, 0.000, 18:31:24.317
139, -115.78, 84.08, 236.06, -3117.46, 0.000, 0.000, 0.000, 18:31:24.332
140, -82.61, 88.60, 223.31, -3095.74, 0.000, 0.000, 0.000, 18:31:24.332
141, -102.01, 100.34, 236.01, -3088.71, 0.000, 0.000, 0.000, 18:31:24.347
142, -121.33, 101.96, 241.87, -3156.46, 0.000, 0.000, 0.000, 18:31:24.347
143, -112.44, 78.89, 234.91, -3106.53, 0.000, 0.000, 0.000, 18:31:24.347
144, -97.43, 85.46, 228.63, -3037.21, 0.000, 0.000, 0.000, 18:31:24.347
145, -99.62, 98.66, 231.95, -3177.58, 0.000, 0.000, 0.000, 18:31:24.362
146, -103.95, 104.05, 227.01, -3243.56, 0.000, 0.000, 0.000, 18:31:24.362
147, -111.80, 84.18, 237.51, -3094.83, 0.000, 0.000, 0.000, 18:31:24.377
148, -91.50, 81.18, 225.30, -3075.51, 0.000, 0.000, 0.000, 18:31:24.377
149, -95.06, 101.68, 227.66, -3150.24, 0.000, 0.000, 0.000, 18:31:24.377
150, -122.56, 100.19, 232.43, -3183.20, 0.000, 0.000, 0.000, 18:31:24.377
151, -105.55, 85.42, 231.08, -3138.38, 0.000, 0.000, 0.000, 18:31:24.392
152, -74.41, 92.87, 218.84, -3123.64, 0.000, 0.000, 0.000, 18:31:24.392
153, -98.39, 100.58, 231.10, -3125.66, 0.000, 0.000, 0.000, 18:31:24.422
154, -113.32, 105.11, 241.52, -3183.86, 0.000, 0.000, 0.000, 18:31:24.422
155, -108.39, 87.72, 225.50, -3127.26, 0.000, 0.000, 0.000, 18:31:24.423
156, -89.45, 86.93, 232.73, -3067.64, 0.000, 0.000, 0.000, 18:31:24.423
157, -101.59, 96.63, 226.94, -3150.74, 0.000, 0.000, 0.000, 18:31:24.424
158, -120.79, 100.28, 227.91, -3192.47, 0.000, 0.000, 0.000, 18:31:24.424
159, -119.16, 80.54, 224.48, -3117.50, 0.000, 0.000, 0.000, 18:31:24.424
160, -98.66, 75.82, 222.15, -3083.51, 0.000, 0.000, 0.000, 18:31:24.424
161, -67.39, 110.67, 216.53, -3274.16, 0.000, 0.000, 0.000, 18:31:24.437
162, -131.15, 103.67, 238.65, -3142.04, 0.000, 0.000, 0.000, 18:31:24.437
163, -121.78, 80.25, 233.60, -3101.22, 0.000, 0.000, 0.000, 18:31:24.452
164, -93.26, 79.38, 228.68, -3090.01, 0.000, 0.000, 0.000, 18:31:24.452
165, -104.37, 91.07, 231.67, -3130.00, 0.000, 0.000, 0.000, 18:31:24.467
166, -133.14, 89.34, 229.53, -3181.04, 0.000, 0.000, 0.000, 18:31:24.467
167, -123.35, 78.59, 223.46, -3118.96, 0.000, 0.000, 0.000, 18:31:24.467
168, -103.34, 74.18, 222.39, -3066.06, 0.000, 0.000, 0.000, 18:31:24.467
169, -102.91, 95.86, 229.22, -3122.10, 0.000, 0.000, 0.000, 18:31:24.482
170, -111.70, 105.59, 230.76, -3221.50, 0.000, 0.000, 0.000, 18:31:24.482
171, -116.68, 82.18, 226.19, -3116.29, 0.000, 0.000, 0.000, 18:31:24.497
172, -100.32, 78.71, 218.22, -3065.41, 0.000, 0.000, 0.000, 18:31:24.497
173, -93.62, 99.53, 230.43, -3128.18, 0.000, 0.000, 0.000, 18:31:24.497
174, -111.90, 100.44, 245.95, -3169.42, 0.000, 0.000, 0.000, 18:31:24.497
175, -110.61, 81.13, 238.03, -3107.82, 0.000, 0.000, 0.000, 18:31:24.512
176, -78.81, 85.70, 223.94, -3119.47, 0.000, 0.000, 0.000, 18:31:24.512
177, -104.77, 93.65, 228.48, -3114.81, 0.000, 0.000, 0.000, 18:31:24.527
178, -121.55, 95.63, 232.92, -3184.71, 0.000, 0.000, 0.000, 18:31:24.527
179, -117.68, 74.69, 222.10, -3116.02, 0.000, 0.000, 0.000, 18:31:24.527
180, -91.86, 78.80, 227.41, -3069.22, 0.000, 0.000, 0.000, 18:31:24.527
181, -92.44, 92.07, 229.83, -3147.42, 0.000, 0.000, 0.000, 18:31:24.542
182, -102.72, 105.27, 236.46, -3234.05, 0.000, 0.000, 0.000, 18:31:24.542
183, -114.45, 82.78, 233.57, -3119.07, 0.000, 0.000, 0.000, 18:31:24.557
184, -92.37, 82.03, 226.42, -3087.87, 0.000, 0.000, 0.000, 18:31:24.557
185, -100.45, 93.92, 225.41, -3145.62, 0.000, 0.000, 0.000, 18:31:24.557
186, -121.55, 93.50, 242.64, -3170.37, 0.000, 0.000, 0.000, 18:31:24.557
187, -106.60, 78.52, 236.35, -3129.07, 0.000, 0.000, 0.000, 18:31:24.572
188, -73.55, 84.00, 223.65, -3119.33, 0.000, 0.000, 0.000, 18:31:24.572
189, -98.42, 88.96, 232.21, -3134.74, 0.000, 0.000, 0.000, 18:31:24.587
190, -115.95, 98.12, 240.19, -3214.34, 0.000, 0.000, 0.000, 18:31:24.587
191, -100.81, 91.13, 233.43, -3133.59, 0.000, 0.000, 0.000, 18:31:24.587
192, -100.58, 71.56, 221.38, -3084.24, 0.000, 0.000, 0.000, 18:31:24.587
193, -90.61, 96.85, 232.25, -3139.73, 0.000, 0.000, 0.000, 18:31:24.602
194, -104.25, 101.36, 230.02, -3231.10, 0.000, 0.000, 0.000, 18:31:24.602
195, -105.36, 87.95, 245.80, -3119.66, 0.000, 0.000, 0.000, 18:31:24.617
196, -86.58, 77.87, 230.33, -3093.93, 0.000, 0.000, 0.000, 18:31:24.617
197, -90.01, 98.33, 232.85, -3130.74, 0.000, 0.000, 0.000, 18:31:24.617
198, -120.24, 99.80, 241.96, -3166.58, 0.000, 0.000, 0.000, 18:31:24.617
199, -115.53, 82.66, 232.85, -3086.43, 0.000, 0.000, 0.000, 18:31:24.632
200, -79.33, 80.72, 226.20, -3097.57, 0.000, 0.000, 0.000, 18:31:24.632
0, -99.95, 91.82, 233.13, -3128.87, 0.000, 0.000, 0.000, 18:31:24.632
1, -122.92, 95.52, 233.76, -3194.53, 0.000, 0.000, 0.000, 18:31:24.647
2, -102.24, 92.09, 231.80, -3155.29, 0.000, 0.000, 0.000, 18:31:24.647
3, -91.44, 81.55, 237.36, -3033.44, 0.000, 0.000, 0.000, 18:31:24.662
4, -94.12, 104.62, 241.71, -3126.28, 0.000, 0.000, 0.000, 18:31:24.662
5, -119.56, 91.64, 231.54, -3186.38, 0.000, 0.000, 0.000, 18:31:24.662
6, -114.37, 78.40, 237.33, -3095.40, 0.000, 0.000, 0.000, 18:31:24.662
7, -91.49, 77.02, 228.04, -3085.41, 0.000, 0.000, 0.000, 18:31:24.677
8, -90.91, 98.84, 223.63, -3183.74, 0.000, 0.000, 0.000, 18:31:24.677
9, -113.98, 106.92, 250.45, -3146.33, 0.000, 0.000, 0.000, 18:31:24.692
10, -109.39, 94.69, 244.65, -3103.66, 0.000, 0.000, 0.000, 18:31:24.692
11, -97.00, 78.94, 228.77, -3044.15, 0.000, 0.000, 0.000, 18:31:24.692
12, -99.14, 93.10, 232.00, -3124.47, 0.000, 0.000, 0.000, 18:31:24.692
13, -120.09, 100.76, 239.74, -3174.49, 0.000, 0.000, 0.000, 18:31:24.707
14, -103.84, 89.78, 229.48, -3163.57, 0.000, 0.000, 0.000, 18:31:24.707
15, -101.12, 77.79, 223.22, -3053.77, 0.000, 0.000, 0.000, 18:31:24.737
16, -103.21, 94.81, 225.65, -3167.64, 0.000, 0.000, 0.000, 18:31:24.737
17, -116.57, 101.78, 229.91, -3220.47, 0.000, 0.000, 0.000, 18:31:24.737
18, -122.44, 78.50, 226.58, -3121.25, 0.000, 0.000, 0.000, 18:31:24.737
19, -87.12, 77.90, 230.94, -3079.44, 0.000, 0.000, 0.000, 18:31:24.738
20, -101.16, 94.61, 225.62, -3116.76, 0.000, 0.000, 0.000, 18:31:24.738
21, -126.62, 91.72, 232.72, -3164.01, 0.000, 0.000, 0.000, 18:31:24.739
22, -117.74, 79.80, 233.46, -3121.65, 0.000, 0.000, 0.000, 18:31:24.739
23, -60.97, 83.97, 215.45, -3189.62, 0.000, 0.000, 0.000, 18:31:24.752
24, -109.53, 85.63, 236.11, -3107.56, 0.000, 0.000, 0.000, 18:31:24.752
25, -122.67, 93.24, 239.51, -3181.25, 0.000, 0.000, 0.000, 18:31:24.767
26, -108.13, 81.43, 234.10, -3136.12, 0.000, 0.000, 0.000, 18:31:24.767
27, -90.53, 77.31, 227.34, -3055.40, 0.000, 0.000, 0.000, 18:31:24.782
28, -95.91, 85.72, 233.80, -3144.99, 0.000, 0.000, 0.000, 18:31:24.782
29, -107.37, 102.45, 236.31, -3195.26, 0.000, 0.000, 0.000, 18:31:24.782
30, -108.68, 83.84, 241.06, -3111.16, 0.000, 0.000, 0.000, 18:31:24.782
31, -81.43, 82.95, 231.53, -3106.19, 0.000, 0.000, 0.000, 18:31:24.797
32, -79.57, 98.04, 226.04, -3163.56, 0.000, 0.000, 0.000, 18:31:24.797
33, -115.13, 101.03, 245.67, -3157.63, 0.000, 0.000, 0.000, 18:31:24.812
34, -116.66, 76.24, 236.62, -3123.33, 0.000, 0.000, 0.000, 18:31:24.812
35, -94.54, 79.24, 227.38, -3080.51, 0.000, 0.000, 0.000, 18:31:24.812
36, -103.30, 88.42, 232.95, -3116.03, 0.000, 0.000, 0.000, 18:31:24.812
37, -112.39, 96.76, 241.78, -3175.60, 0.000, 0.000, 0.000, 18:31:24.827
38, -101.66, 85.61, 230.17, -3146.42, 0.000, 0.000, 0.000, 18:31:24.827
39, -92.07, 79.54, 233.94, -3056.83, 0.000, 0.000, 0.000, 18:31:24.842
40, -93.67, 98.28, 232.30, -3116.69, 0.000, 0.000, 0.000, 18:31:24.842
41, -111.69, 105.09, 244.24, -3177.06, 0.000, 0.000, 0.000, 18:31:24.842
42, -122.26, 77.98, 236.67, -3100.72, 0.000, 0.000, 0.000, 18:31:24.842
43, -88.72, 80.90, 232.93, -3073.55, 0.000, 0.000, 0.000, 18:31:24.857
44, -80.99, 100.03, 227.87, -3173.21, 0.000, 0.000, 0.000, 18:31:24.857
45, -123.62, 97.30, 242.84, -3164.01, 0.000, 0.000, 0.000, 18:31:24.872
46, -109.93, 92.76, 240.62, -3119.53, 0.000, 0.000, 0.000, 18:31:24.872
47, -92.62, 82.50, 226.16, -3079.98, 0.000, 0.000, 0.000, 18:31:24.872
48, -100.61, 100.26, 230.51, -3138.88, 0.000, 0.000, 0.000, 18:31:24.872
49, -121.52, 94.18, 232.33, -3209.89, 0.000, 0.000, 0.000, 18:31:24.887
