%OpenBCI Raw EEG Data
%
%Sample Rate = 200.0 Hz
%First Column = SampleIndex
%Last Column = Timestamp 
%Other Columns = EEG data in microvolts followed by Accel Data (in G) interleaved with Aux Data
0, -132.30, 104.38, 195.25, -3044.75, 0.000, 0.000, 0.000, 18:26:25.962
1, -112.31, 102.88, 198.17, -2990.31, 0.000, 0.000, 0.000, 18:26:25.977
2, -92.29, 105.19, 187.89, -2972.62, 0.000, 0.000, 0.000, 18:26:25.977
3, -111.59, 115.72, 190.46, -3013.23, 0.000, 0.000, 0.000, 18:26:25.992
4, -125.89, 113.52, 199.76, -3052.43, 0.000, 0.000, 0.000, 18:26:25.992
5, -103.23, 109.01, 199.56, -2976.79, 0.000, 0.000, 0.000, 18:26:25.993
6, -85.68, 115.46, 202.46, -2924.45, 0.000, 0.000, 0.000, 18:26:25.993
7, -110.78, 114.23, 193.41, -3027.75, 0.000, 0.000, 0.000, 18:26:26.007
8, -108.69, 122.85, 200.25, -3071.45, 0.000, 0.000, 0.000, 18:26:26.007
9, -107.55, 111.08, 208.02, -2939.97, 0.000, 0.000, 0.000, 18:26:26.022
10, -88.15, 113.74, 202.75, -2936.82, 0.000, 0.000, 0.000, 18:26:26.022
11, -107.18, 117.19, 191.87, -3040.44, 0.000, 0.000, 0.000, 18:26:26.023
12, -131.36, 112.70, 201.04, -3029.16, 0.000, 0.000, 0.000, 18:26:26.023
13, -108.91, 111.30, 205.43, -2947.83, 0.000, 0.000, 0.000, 18:26:26.037
14, -73.56, 124.30, 199.16, -3000.50, 0.000, 0.000, 0.000, 18:26:26.038
15, -105.02, 121.31, 197.61, -3032.27, 0.000, 0.000, 0.000, 18:26:26.052
16, -126.08, 122.07, 203.62, -3019.03, 0.000, 0.000, 0.000, 18:26:26.052
17, -115.98, 105.81, 194.56, -2964.76, 0.000, 0.000, 0.000, 18:26:26.053
18, -97.84, 106.38, 191.08, -2938.72, 0.000, 0.000, 0.000, 18:26:26.053
19, -96.10, 128.45, 200.91, -3017.34, 0.000, 0.000, 0.000, 18:26:26.067
20, -107.27, 129.24, 199.30, -3066.17, 0.000, 0.000, 0.000, 18:26:26.067
21, -108.30, 109.48, 197.03, -2957.80, 0.000, 0.000, 0.000, 18:26:26.082
22, -93.06, 122.41, 196.73, -2903.38, 0.000, 0.000, 0.000, 18:26:26.082
23, -110.04, 122.81, 186.68, -3033.54, 0.000, 0.000, 0.000, 18:26:26.083
24, -129.84, 120.99, 202.31, -3005.94, 0.000, 0.000, 0.000, 18:26:26.083
25, -115.24, 107.87, 199.10, -2961.17, 0.000, 0.000, 0.000, 18:26:26.097
26, -73.87, 122.41, 199.36, -2957.49, 0.000, 0.000, 0.000, 18:26:26.097
27, -108.88, 121.20, 198.60, -2996.56, 0.000, 0.000, 0.000, 18:26:26.112
28, -129.53, 118.58, 193.14, -3048.03, 0.000, 0.000, 0.000, 18:26:26.112
29, -105.34, 112.51, 194.00, -2992.99, 0.000, 0.000, 0.000, 18:26:26.113
30, -98.97, 105.58, 190.46, -2944.83, 0.000, 0.000, 0.000, 18:26:26.113
31, -105.68, 118.73, 193.00, -3034.78, 0.000, 0.000, 0.000, 18:26:26.142
32, -115.08, 120.49, 194.30, -3099.49, 0.000, 0.000, 0.000, 18:26:26.142
33, -111.63, 108.66, 203.31, -2957.54, 0.000, 0.000, 0.000, 18:26:26.143
34, -104.67, 101.53, 184.60, -2961.51, 0.000, 0.000, 0.000, 18:26:26.143
35, -105.92, 122.32, 195.80, -3030.41, 0.000, 0.000, 0.000, 18:26:26.144
36, -126.43, 119.69, 203.64, -3031.44, 0.000, 0.000, 0.000, 18:26:26.144
37, -106.02, 107.77, 207.47, -2982.34, 0.000, 0.000, 0.000, 18:26:26.157
38, -67.93, 108.17, 185.03, -3057.74, 0.000, 0.000, 0.000, 18:26:26.157
39, -106.90, 118.22, 203.59, -3018.79, 0.000, 0.000, 0.000, 18:26:26.172
40, -129.50, 120.56, 205.39, -3032.11, 0.000, 0.000, 0.000, 18:26:26.172
41, -101.62, 121.84, 208.74, -2972.03, 0.000, 0.000, 0.000, 18:26:26.173
42, -92.60, 123.38, 209.87, -2896.52, 0.000, 0.000, 0.000, 18:26:26.173
43, -103.37, 131.74, 206.07, -2992.78, 0.000, 0.000, 0.000, 18:26:26.187
44, -104.11, 132.44, 216.34, -3064.20, 0.000, 0.000, 0.000, 18:26:26.187
45, -106.34, 110.41, 206.79, -2960.45, 0.000, 0.000, 0.000, 18:26:26.202
46, -86.91, 110.02, 201.51, -2934.93, 0.000, 0.000, 0.000, 18:26:26.202
47, -95.19, 122.79, 202.08, -3043.83, 0.000, 0.000, 0.000, 18:26:26.203
48, -119.37, 120.30, 206.71, -3042.79, 0.000, 0.000, 0.000, 18:26:26.203
49, -101.10, 114.08, 207.06, -2982.40, 0.000, 0.000, 0.000, 18:26:26.217
50, -72.16, 117.13, 193.93, -2993.51, 0.000, 0.000, 0.000, 18:26:26.217
51, -111.87, 121.57, 194.01, -3006.87, 0.000, 0.000, 0.000, 18:26:26.232
52, -123.44, 119.70, 198.23, -3055.04, 0.000, 0.000, 0.000, 18:26:26.232
53, -105.39, 114.95, 199.21, -2976.98, 0.000, 0.000, 0.000, 18:26:26.233
54, -98.86, 116.53, 199.03, -2926.11, 0.000, 0.000, 0.000, 18:26:26.233
55, -113.42, 117.75, 189.75, -3023.31, 0.000, 0.000, 0.000, 18:26:26.247
56, -112.56, 124.92, 196.78, -3067.53, 0.000, 0.000, 0.000, 18:26:26.247
57, -117.33, 106.42, 201.18, -2952.74, 0.000, 0.000, 0.000, 18:26:26.262
58, -97.79, 105.76, 187.57, -2968.36, 0.000, 0.000, 0.000, 18:26:26.262
59, -110.74, 121.01, 189.11, -3017.07, 0.000, 0.000, 0.000, 18:26:26.263
60, -144.65, 114.26, 191.48, -3004.04, 0.000, 0.000, 0.000, 18:26:26.263
61, -125.94, 104.52, 194.81, -2924.76, 0.000, 0.000, 0.000, 18:26:26.277
62, -95.11, 106.09, 187.41, -2945.80, 0.000, 0.000, 0.000, 18:26:26.278
63, -118.35, 111.97, 192.20, -2994.81, 0.000, 0.000, 0.000, 18:26:26.292
64, -130.20, 117.07, 198.84, -3029.82, 0.000, 0.000, 0.000, 18:26:26.292
65, -100.57, 117.03, 197.55, -2989.23, 0.000, 0.000, 0.000, 18:26:26.293
66, -95.63, 111.07, 194.26, -2932.68, 0.000, 0.000, 0.000, 18:26:26.293
67, -104.53, 128.83, 201.73, -2993.58, 0.000, 0.000, 0.000, 18:26:26.307
68, -112.20, 125.56, 203.56, -3065.34, 0.000, 0.000, 0.000, 18:26:26.307
69, -109.91, 110.58, 204.72, -2947.94, 0.000, 0.000, 0.000, 18:26:26.322
70, -81.83, 116.58, 205.04, -2941.37, 0.000, 0.000, 0.000, 18:26:26.322
71, -90.18, 134.11, 204.99, -3039.27, 0.000, 0.000, 0.000, 18:26:26.323
72, -111.94, 129.13, 212.28, -3039.90, 0.000, 0.000, 0.000, 18:26:26.323
73, -96.05, 118.34, 207.95, -2949.01, 0.000, 0.000, 0.000, 18:26:26.337
74, -75.50, 122.11, 198.77, -2974.79, 0.000, 0.000, 0.000, 18:26:26.337
75, -116.79, 115.35, 196.78, -3003.23, 0.000, 0.000, 0.000, 18:26:26.352
76, -130.91, 118.99, 205.62, -3015.75, 0.000, 0.000, 0.000, 18:26:26.352
77, -110.74, 110.60, 200.38, -2962.75, 0.000, 0.000, 0.000, 18:26:26.353
78, -98.02, 111.05, 199.85, -2900.65, 0.000, 0.000, 0.000, 18:26:26.353
79, -108.58, 118.96, 201.04, -3011.17, 0.000, 0.000, 0.000, 18:26:26.367
80, -115.68, 123.41, 199.44, -3080.83, 0.000, 0.000, 0.000, 18:26:26.367
81, -117.37, 105.95, 198.36, -2940.26, 0.000, 0.000, 0.000, 18:26:26.382
82, -94.13, 110.52, 202.56, -2940.49, 0.000, 0.000, 0.000, 18:26:26.382
83, -104.40, 123.43, 197.66, -3023.02, 0.000, 0.000, 0.000, 18:26:26.383
84, -131.78, 117.59, 199.85, -3043.52, 0.000, 0.000, 0.000, 18:26:26.383
85, -102.77, 110.55, 199.89, -2989.37, 0.000, 0.000, 0.000, 18:26:26.397
86, -72.09, 118.24, 194.01, -2984.23, 0.000, 0.000, 0.000, 18:26:26.397
87, -95.96, 122.77, 205.03, -2994.55, 0.000, 0.000, 0.000, 18:26:26.412
88, -127.51, 114.53, 200.94, -3021.34, 0.000, 0.000, 0.000, 18:26:26.412
89, -107.24, 116.47, 200.00, -2980.34, 0.000, 0.000, 0.000, 18:26:26.413
90, -84.61, 124.20, 206.15, -2907.27, 0.000, 0.000, 0.000, 18:26:26.413
91, -108.35, 128.99, 203.45, -2999.45, 0.000, 0.000, 0.000, 18:26:26.427
92, -121.29, 122.54, 199.64, -3063.10, 0.000, 0.000, 0.000, 18:26:26.427
93, -115.96, 114.93, 206.32, -2938.03, 0.000, 0.000, 0.000, 18:26:26.442
94, -90.04, 119.33, 202.12, -2936.81, 0.000, 0.000, 0.000, 18:26:26.442
95, -108.62, 118.36, 193.50, -3046.82, 0.000, 0.000, 0.000, 18:26:26.443
96, -131.64, 118.43, 200.58, -3013.33, 0.000, 0.000, 0.000, 18:26:26.443
97, -108.95, 115.16, 210.11, -2937.75, 0.000, 0.000, 0.000, 18:26:26.472
98, -81.28, 119.30, 203.21, -2921.45, 0.000, 0.000, 0.000, 18:26:26.472
99, -109.43, 127.59, 212.87, -2939.00, 0.000, 0.000, 0.000, 18:26:26.472
100, -131.46, 115.16, 207.30, -3000.13, 0.000, 0.000, 0.000, 18:26:26.472
101, -102.92, 108.73, 218.94, -2916.44, 0.000, 0.000, 0.000, 18:26:26.474
102, -86.94, 113.37, 213.37, -2902.41, 0.000, 0.000, 0.000, 18:26:26.474
103, -98.62, 123.99, 206.56, -3000.20, 0.000, 0.000, 0.000, 18:26:26.487
104, -94.47, 135.05, 203.33, -3092.08, 0.000, 0.000, 0.000, 18:26:26.487
105, -109.63, 115.91, 212.84, -2929.58, 0.000, 0.000, 0.000, 18:26:26.502
106, -88.01, 113.35, 202.95, -2921.74, 0.000, 0.000, 0.000, 18:26:26.502
107, -99.10, 126.74, 197.20, -3020.21, 0.000, 0.000, 0.000, 18:26:26.503
108, -130.35, 119.07, 203.00, -3033.99, 0.000, 0.000, 0.000, 18:26:26.503
109, -118.90, 103.52, 192.84, -2954.95, 0.000, 0.000, 0.000, 18:26:26.517
110, -85.02, 115.59, 195.25, -2968.43, 0.000, 0.000, 0.000, 18:26:26.517
111, -113.13, 118.34, 203.02, -2988.93, 0.000, 0.000, 0.000, 18:26:26.532
112, -127.91, 117.45, 203.43, -3027.91, 0.000, 0.000, 0.000, 18:26:26.532
113, -104.17, 111.21, 201.24, -2986.74, 0.000, 0.000, 0.000, 18:26:26.533
114, -84.59, 120.56, 204.76, -2917.14, 0.000, 0.000, 0.000, 18:26:26.533
115, -105.30, 121.74, 194.94, -3011.38, 0.000, 0.000, 0.000, 18:26:26.547
116, -122.50, 114.21, 190.36, -3080.48, 0.000, 0.000, 0.000, 18:26:26.547
117, -111.61, 112.83, 201.37, -2972.61, 0.000, 0.000, 0.000, 18:26:26.562
118, -86.85, 117.23, 196.36, -2941.17, 0.000, 0.000, 0.000, 18:26:26.562
119, -96.51, 130.12, 194.47, -3034.06, 0.000, 0.000, 0.000, 18:26:26.563
120, -127.39, 123.44, 199.26, -3025.25, 0.000, 0.000, 0.000, 18:26:26.563
121, -105.80, 117.26, 207.48, -2974.39, 0.000, 0.000, 0.000, 18:26:26.577
122, -77.26, 118.42, 196.67, -2976.33, 0.000, 0.000, 0.000, 18:26:26.577
123, -105.23, 124.76, 204.37, -2987.33, 0.000, 0.000, 0.000, 18:26:26.592
124, -127.27, 120.09, 203.45, -3030.73, 0.000, 0.000, 0.000, 18:26:26.592
125, -105.52, 110.09, 204.56, -2975.04, 0.000, 0.000, 0.000, 18:26:26.593
126, -85.46, 111.12, 199.13, -2932.73, 0.000, 0.000, 0.000, 18:26:26.593
127, -106.40, 120.52, 194.20, -2998.95, 0.000, 0.000, 0.000, 18:26:26.607
128, -108.96, 130.07, 207.17, -3066.85, 0.000, 0.000, 0.000, 18:26:26.607
129, -113.16, 110.75, 205.25, -2944.90, 0.000, 0.000, 0.000, 18:26:26.622
130, -96.77, 114.87, 195.34, -2912.30, 0.000, 0.000, 0.000, 18:26:26.622
131, -105.82, 118.53, 194.16, -3017.65, 0.000, 0.000, 0.000, 18:26:26.623
132, -130.63, 120.25, 195.23, -3024.01, 0.000, 0.000, 0.000, 18:26:26.623
133, -117.42, 110.67, 198.98, -2960.10, 0.000, 0.000, 0.000, 18:26:26.637
134, -84.03, 117.82, 188.75, -2980.17, 0.000, 0.000, 0.000, 18:26:26.637
135, -103.35, 127.68, 196.27, -3004.03, 0.000, 0.000, 0.000, 18:26:26.652
136, -117.66, 124.41, 206.21, -3024.77, 0.000, 0.000, 0.000, 18:26:26.652
137, -103.60, 114.01, 200.58, -2983.12, 0.000, 0.000, 0.000, 18:26:26.653
138, -94.73, 114.38, 206.00, -2893.12, 0.000, 0.000, 0.000, 18:26:26.653
139, -110.17, 124.68, 204.37, -2973.89, 0.000, 0.000, 0.000, 18:26:26.667
140, -117.90, 116.41, 190.73, -3070.29, 0.000, 0.000, 0.000, 18:26:26.667
141, -113.60, 107.81, 205.72, -2954.13, 0.000, 0.000, 0.000, 18:26:26.682
142, -96.90, 111.76, 202.24, -2900.69, 0.000, 0.000, 0.000, 18:26:26.682
143, -114.30, 118.09, 197.46, -3011.68, 0.000, 0.000, 0.000, 18:26:26.683
144, -133.66, 120.96, 204.85, -3005.52, 0.000, 0.000, 0.000, 18:26:26.683
145, -119.67, 105.90, 202.61, -2928.67, 0.000, 0.000, 0.000, 18:26:26.698
146, -89.88, 115.33, 190.91, -2958.33, 0.000, 0.000, 0.000, 18:26:26.698
147, -106.22, 120.78, 194.54, -2987.04, 0.000, 0.000, 0.000, 18:26:26.712
148, -122.45, 124.77, 198.93, -3036.18, 0.000, 0.000, 0.000, 18:26:26.712
149, -98.71, 116.74, 202.43, -2995.93, 0.000, 0.000, 0.000, 18:26:26.713
150, -94.31, 108.82, 194.79, -2929.49, 0.000, 0.000, 0.000, 18:26:26.713
151, -106.37, 114.62, 198.94, -3003.28, 0.000, 0.000, 0.000, 18:26:26.727
152, -108.36, 121.37, 205.46, -3055.57, 0.000, 0.000, 0.000, 18:26:26.727
153, -119.59, 106.29, 202.79, -2933.45, 0.000, 0.000, 0.000, 18:26:26.742
154, -101.54, 100.40, 196.64, -2931.05, 0.000, 0.000, 0.000, 18:26:26.742
155, -100.24, 122.99, 198.13, -3035.75, 0.000, 0.000, 0.000, 18:26:26.743
156, -130.34, 119.28, 194.80, -3028.22, 0.000, 0.000, 0.000, 18:26:26.743
157, -118.19, 107.84, 196.41, -2953.36, 0.000, 0.000, 0.000, 18:26:26.757
158, -75.86, 117.48, 196.58, -2969.60, 0.000, 0.000, 0.000, 18:26:26.757
159, -106.80, 111.85, 193.96, -3022.53, 0.000, 0.000, 0.000, 18:26:26.787
160, -124.31, 120.99, 203.76, -3026.50, 0.000, 0.000, 0.000, 18:26:26.787
161, -103.28, 115.58, 204.19, -2982.99, 0.000, 0.000, 0.000, 18:26:26.788
162, -88.08, 116.62, 200.21, -2932.33, 0.000, 0.000, 0.000, 18:26:26.788
163, -103.51, 122.76, 199.76, -3003.46, 0.000, 0.000, 0.000, 18:26:26.788
164, -123.06, 119.45, 204.74, -3037.96, 0.000, 0.000, 0.000, 18:26:26.788
165, -114.56, 104.45, 205.61, -2956.13, 0.000, 0.000, 0.000, 18:26:26.789
166, -87.73, 113.36, 202.97, -2923.44, 0.000, 0.000, 0.000, 18:26:26.789
167, -64.43, 129.32, 182.90, -3144.48, 0.000, 0.000, 0.000, 18:26:26.802
168, -130.91, 120.06, 207.03, -3015.54, 0.000, 0.000, 0.000, 18:26:26.802
169, -110.18, 111.21, 205.42, -2962.84, 0.000, 0.000, 0.000, 18:26:26.817
170, -82.15, 117.37, 202.61, -2970.37, 0.000, 0.000, 0.000, 18:26:26.817
171, -111.59, 116.86, 196.61, -2988.85, 0.000, 0.000, 0.000, 18:26:26.832
172, -123.87, 117.23, 204.62, -3049.21, 0.000, 0.000, 0.000, 18:26:26.832
173, -104.49, 110.03, 203.50, -3000.78, 0.000, 0.000, 0.000, 18:26:26.833
174, -93.27, 110.37, 200.17, -2928.41, 0.000, 0.000, 0.000, 18:26:26.833
175, -102.18, 125.33, 194.64, -3024.09, 0.000, 0.000, 0.000, 18:26:26.847
176, -118.89, 123.99, 189.80, -3098.24, 0.000, 0.000, 0.000, 18:26:26.847
177, -115.00, 109.85, 201.86, -2981.97, 0.000, 0.000, 0.000, 18:26:26.862
178, -85.29, 114.33, 198.85, -2946.98, 0.000, 0.000, 0.000, 18:26:26.862
179, -105.00, 120.46, 194.55, -3016.65, 0.000, 0.000, 0.000, 18:26:26.863
180, -129.38, 121.30, 206.61, -3032.88, 0.000, 0.000, 0.000, 18:26:26.863
181, -112.85, 109.85, 205.04, -2960.04, 0.000, 0.000, 0.000, 18:26:26.877
182, -82.61, 110.62, 194.95, -2979.14, 0.000, 0.000, 0.000, 18:26:26.878
183, -104.20, 121.54, 200.48, -2998.31, 0.000, 0.000, 0.000, 18:26:26.892
184, -124.38, 122.84, 204.83, -3029.52, 0.000, 0.000, 0.000, 18:26:26.892
185, -108.51, 119.12, 204.41, -2978.30, 0.000, 0.000, 0.000, 18:26:26.893
186, -101.18, 109.04, 191.60, -2920.53, 0.000, 0.000, 0.000, 18:26:26.893
187, -112.18, 123.37, 193.80, -2988.50, 0.000, 0.000, 0.000, 18:26:26.907
188, -125.24, 122.33, 196.96, -3065.84, 0.000, 0.000, 0.000, 18:26:26.907
189, -117.95, 114.18, 208.70, -2946.56, 0.000, 0.000, 0.000, 18:26:26.922
190, -100.15, 107.28, 198.83, -2930.53, 0.000, 0.000, 0.000, 18:26:26.922
191, -104.46, 124.48, 194.30, -3012.83, 0.000, 0.000, 0.000, 18:26:26.923
192, -135.30, 112.88, 199.63, -3012.42, 0.000, 0.000, 0.000, 18:26:26.923
193, -114.53, 103.45, 201.33, -2977.33, 0.000, 0.000, 0.000, 18:26:26.937
194, -80.25, 119.26, 187.77, -2978.16, 0.000, 0.000, 0.000, 18:26:26.937
195, -114.37, 116.01, 183.35, -3008.12, 0.000, 0.000, 0.000, 18:26:26.952
196, -119.04, 119.96, 201.45, -3035.46, 0.000, 0.000, 0.000, 18:26:26.952
197, -107.76, 109.00, 200.11, -2990.20, 0.000, 0.000, 0.000, 18:26:26.953
198, -92.55, 108.37, 205.85, -2909.60, 0.000, 0.000, 0.000, 18:26:26.953
199, -104.79, 121.35, 203.10, -2980.65, 0.000, 0.000, 0.000, 18:26:26.967
200, -112.33, 124.80, 198.58, -3095.65, 0.000, 0.000, 0.000, 18:26:26.968
0, -112.48, 107.67, 205.79, -2956.51, 0.000, 0.000, 0.000, 18:26:26.968
1, -98.32, 97.96, 197.20, -2938.53, 0.000, 0.000, 0.000, 18:26:26.982
2, -87.09, 125.34, 198.64, -3038.19, 0.000, 0.000, 0.000, 18:26:26.982
3, -125.57, 117.76, 202.21, -3044.45, 0.000, 0.000, 0.000, 18:26:26.997
4, -106.87, 111.83, 202.66, -2982.32, 0.000, 0.000, 0.000, 18:26:26.997
5, -84.63, 111.65, 200.21, -2961.40, 0.000, 0.000, 0.000, 18:26:26.998
6, -103.66, 119.61, 199.23, -2981.69, 0.000, 0.000, 0.000, 18:26:26.998
7, -127.43, 113.96, 197.40, -3045.52, 0.000, 0.000, 0.000, 18:26:27.013
8, -99.09, 113.44, 192.93, -3022.13, 0.000, 0.000, 0.000, 18:26:27.013
9, -94.26, 103.98, 190.60, -2936.73, 0.000, 0.000, 0.000, 18:26:27.027
10, -107.44, 116.74, 191.31, -3018.89, 0.000, 0.000, 0.000, 18:26:27.027
11, -114.75, 124.37, 195.87, -3077.40, 0.000, 0.000, 0.000, 18:26:27.028
12, -113.76, 106.55, 191.68, -2986.46, 0.000, 0.000, 0.000, 18:26:27.028
13, -96.11, 105.28, 185.38, -2935.55, 0.000, 0.000, 0.000, 18:26:27.042
14, -100.57, 123.78, 180.73, -3051.11, 0.000, 0.000, 0.000, 18:26:27.042
15, -130.77, 116.20, 196.21, -3038.09, 0.000, 0.000, 0.000, 18:26:27.057
16, -122.05, 101.94, 194.52, -2975.57, 0.000, 0.000, 0.000, 18:26:27.057
17, -102.39, 110.01, 184.31, -2948.88, 0.000, 0.000, 0.000, 18:26:27.058
18, -113.15, 118.26, 185.60, -3021.76, 0.000, 0.000, 0.000, 18:26:27.058
19, -136.12, 113.19, 188.44, -3066.57, 0.000, 0.000, 0.000, 18:26:27.072
20, -109.08, 116.33, 193.93, -3017.74, 0.000, 0.000, 0.000, 18:26:27.072
21, -105.23, 112.24, 191.03, -2925.21, 0.000, 0.000, 0.000, 18:26:27.102
22, -122.26, 115.29, 190.79, -2981.77, 0.000, 0.000, 0.000, 18:26:27.102
23, -131.06, 122.67, 201.24, -3030.78, 0.000, 0.000, 0.000, 18:26:27.103
24, -123.36, 103.83, 199.70, -2970.34, 0.000, 0.000, 0.000, 18:26:27.103
25, -97.97, 108.95, 196.10, -2938.92, 0.000, 0.000, 0.000, 18:26:27.103
26, -104.31, 122.78, 197.76, -2999.24, 0.000, 0.000, 0.000, 18:26:27.103
27, -124.21, 124.23, 208.44, -3027.85, 0.000, 0.000, 0.000, 18:26:27.104
28, -114.12, 113.19, 201.93, -2963.75, 0.000, 0.000, 0.000, 18:26:27.104
29, -62.68, 121.71, 182.08, -3043.95, 0.000, 0.000, 0.000, 18:26:27.117
30, -117.59, 116.08, 195.38, -2992.71, 0.000, 0.000, 0.000, 18:26:27.117
31, -128.87, 117.51, 200.02, -3038.24, 0.000, 0.000, 0.000, 18:26:27.132
32, -109.02, 110.81, 199.79, -2986.15, 0.000, 0.000, 0.000, 18:26:27.132
33, -97.82, 109.82, 192.10, -2921.98, 0.000, 0.000, 0.000, 18:26:27.147
34, -110.22, 121.94, 197.80, -2990.61, 0.000, 0.000, 0.000, 18:26:27.147
35, -124.92, 122.57, 192.83, -3051.93, 0.000, 0.000, 0.000, 18:26:27.148
36, -118.35, 108.44, 198.79, -2967.06, 0.000, 0.000, 0.000, 18:26:27.148
37, -97.64, 114.15, 196.80, -2914.98, 0.000, 0.000, 0.000, 18:26:27.162
38, -98.66, 119.94, 187.50, -3042.32, 0.000, 0.000, 0.000, 18:26:27.163
39, -141.35, 110.90, 191.81, -3029.49, 0.000, 0.000, 0.000, 18:26:27.177
40, -126.75, 100.42, 195.19, -2952.49, 0.000, 0.000, 0.000, 18:26:27.177
41, -88.96, 118.29, 197.27, -2942.45, 0.000, 0.000, 0.000, 18:26:27.178
42, -103.97, 119.21, 197.67, -3010.70, 0.000, 0.000, 0.000, 18:26:27.178
43, -127.37, 115.25, 193.95, -3042.43, 0.000, 0.000, 0.000, 18:26:27.192
44, -110.26, 112.39, 187.25, -3011.81, 0.000, 0.000, 0.000, 18:26:27.195
45, -101.67, 111.36, 193.69, -2920.45, 0.000, 0.000, 0.000, 18:26:27.207
46, -113.26, 117.03, 189.65, -2985.74, 0.000, 0.000, 0.000, 18:26:27.207
47, -121.81, 125.33, 204.50, -3045.03, 0.000, 0.000, 0.000, 18:26:27.208
48, -111.13, 117.18, 203.52, -2951.44, 0.000, 0.000, 0.000, 18:26:27.208
49, -85.81, 119.60, 205.00, -2895.42, 0.000, 0.000, 0.000, 18:26:27.222
50, -88.46, 129.54, 199.72, -3021.52, 0.000, 0.000, 0.000, 18:26:27.222
51, -123.36, 123.92, 210.47, -3027.62, 0.000, 0.000, 0.000, 18:26:27.237
52, -112.02, 108.89, 208.52, -2950.08, 0.000, 0.000, 0.000, 18:26:27.237
53, -89.16, 117.45, 203.42, -2944.78, 0.000, 0.000, 0.000, 18:26:27.238
54, -102.48, 120.85, 201.47, -3001.42, 0.000, 0.000, 0.000, 18:26:27.238
55, -119.42, 121.75, 207.53, -3028.48, 0.000, 0.000, 0.000, 18:26:27.252
56, -97.97, 124.22, 209.78, -3001.54, 0.000, 0.000, 0.000, 18:26:27.252
57, -89.06, 112.57, 206.28, -2905.64, 0.000, 0.000, 0.000, 18:26:27.267
58, -107.85, 120.38, 199.42, -2993.08, 0.000, 0.000, 0.000, 18:26:27.267
59, -119.77, 126.07, 205.08, -3059.09, 0.000, 0.000, 0.000, 18:26:27.267
60, -109.78, 120.21, 209.88, -2943.95, 0.000, 0.000, 0.000, 18:26:27.268
61, -93.70, 114.19, 204.89, -2915.96, 0.000, 0.000, 0.000, 18:26:27.282
62, -95.11, 124.88, 191.66, -3028.63, 0.000, 0.000, 0.000, 18:26:27.282
63, -129.93, 117.76, 202.45, -3040.79, 0.000, 0.000, 0.000, 18:26:27.297
64, -108.71, 114.63, 206.01, -2976.12, 0.000, 0.000, 0.000, 18:26:27.297
65, -81.13, 115.95, 196.12, -2964.35, 0.000, 0.000, 0.000, 18:26:27.298
66, -96.53, 123.30, 203.33, -2998.38, 0.000, 0.000, 0.000, 18:26:27.298
67, -117.71, 124.81, 204.33, -3044.15, 0.000, 0.000, 0.000, 18:26:27.312
68, -98.88, 114.23, 196.65, -3016.78, 0.000, 0.000, 0.000, 18:26:27.312
69, -88.70, 118.38, 201.30, -2919.26, 0.000, 0.000, 0.000, 18:26:27.327
70, -92.81, 133.72, 200.91, -2997.56, 0.000, 0.000, 0.000, 18:26:27.327
71, -112.06, 134.07, 201.87, -3066.85, 0.000, 0.000, 0.000, 18:26:27.328
72, -108.90, 117.74, 203.31, -2984.98, 0.000, 0.000, 0.000, 18:26:27.328
73, -84.74, 125.61, 197.75, -2950.25, 0.000, 0.000, 0.000, 18:26:27.342
74, -82.66, 149.23, 201.14, -3020.46, 0.000, 0.000, 0.000, 18:26:27.342
75, -115.66, 149.00, 211.61, -2997.13, 0.000, 0.000, 0.000, 18:26:27.357
76, -107.76, 144.58, 215.23, -2923.73, 0.000, 0.000, 0.000, 18:26:27.357
77, -80.05, 156.38, 206.30, -2908.46, 0.000, 0.000, 0.000, 18:26:27.358
78, -101.08, 166.56, 202.67, -2946.48, 0.000, 0.000, 0.000, 18:26:27.358
79, -108.30, 170.51, 222.71, -2981.08, 0.000, 0.000, 0.000, 18:26:27.372
80, -86.72, 157.96, 218.43, -2953.25, 0.000, 0.000, 0.000, 18:26:27.372
81, -81.37, 146.13, 219.72, -2871.14, 0.000, 0.000, 0.000, 18:26:27.387
82, -80.36, 162.75, 224.06, -2943.61, 0.000, 0.000, 0.000, 18:26:27.387
83, -113.59, 161.26, 210.51, -3017.21, 0.000, 0.000, 0.000, 18:26:27.388
84, -111.85, 146.88, 213.04, -2926.25, 0.000, 0.000, 0.000, 18:26:27.388
85, -86.16, 137.40, 209.40, -2899.27, 0.000, 0.000, 0.000, 18:26:27.402
86, -89.72, 145.43, 199.24, -3015.37, 0.000, 0.000, 0.000, 18:26:27.402
87, -123.51, 142.00, 210.93, -2988.54, 0.000, 0.000, 0.000, 18:26:27.432
88, -109.39, 127.78, 211.47, -2942.58, 0.000, 0.000, 0.000, 18:26:27.432
89, -89.58, 124.41, 203.32, -2931.44, 0.000, 0.000, 0.000, 18:26:27.432
90, -105.53, 131.39, 205.24, -2977.87, 0.000, 0.000, 0.000, 18:26:27.432
91, -129.04, 118.80, 203.07, -3035.20, 0.000, 0.000, 0.000, 18:26:27.433
92, -125.84, 110.83, 203.00, -2952.25, 0.000, 0.000, 0.000, 18:26:27.433
93, -104.33, 108.46, 196.14, -2919.21, 0.000, 0.000, 0.000, 18:26:27.434
94, -115.23, 112.65, 190.57, -2999.04, 0.000, 0.000, 0.000, 18:26:27.434
95, -100.37, 119.45, 181.36, -3161.58, 0.000, 0.000, 0.000, 18:26:27.447
96, -135.42, 94.58, 196.36, -2946.16, 0.000, 0.000, 0.000, 18:26:27.447
97, -108.02, 94.69, 191.19, -2921.37, 0.000, 0.000, 0.000, 18:26:27.462
98, -111.54, 106.25, 188.72, -3024.93, 0.000, 0.000, 0.000, 18:26:27.462
99, -140.61, 101.82, 191.88, -3032.52, 0.000, 0.000, 0.000, 18:26:27.492
100, -125.75, 95.51, 189.04, -2985.37, 0.000, 0.000, 0.000, 18:26:27.492
101, -97.96, 96.70, 187.63, -2946.02, 0.000, 0.000, 0.000, 18:26:27.492
102, -117.83, 101.99, 191.70, -2988.69, 0.000, 0.000, 0.000, 18:26:27.492
103, -148.44, 97.10, 190.53, -3034.27, 0.000, 0.000, 0.000, 18:26:27.493
104, -124.68, 97.88, 202.56, -2948.34, 0.000, 0.000, 0.000, 18:26:27.493
105, -105.82, 90.41, 191.81, -2919.65, 0.000, 0.000, 0.000, 18:26:27.494
106, -111.57, 98.80, 184.46, -3012.56, 0.000, 0.000, 0.000, 18:26:27.494
107, -81.75, 122.52, 186.01, -3193.18, 0.000, 0.000, 0.000, 18:26:27.507
108, -129.33, 94.89, 205.21, -2934.34, 0.000, 0.000, 0.000, 18:26:27.507
109, -103.14, 93.32, 192.13, -2902.42, 0.000, 0.000, 0.000, 18:26:27.522
110, -109.63, 107.47, 197.94, -2998.35, 0.000, 0.000, 0.000, 18:26:27.522
111, -130.00, 115.31, 213.70, -2995.93, 0.000, 0.000, 0.000, 18:26:27.537
112, -122.02, 96.76, 204.60, -2948.79, 0.000, 0.000, 0.000, 18:26:27.537
113, -89.87, 110.04, 205.00, -2915.86, 0.000, 0.000, 0.000, 18:26:27.538
114, -106.62, 107.92, 201.73, -2988.08, 0.000, 0.000, 0.000, 18:26:27.538
115, -123.11, 112.76, 210.81, -3031.91, 0.000, 0.000, 0.000, 18:26:27.552
116, -110.47, 97.09, 202.17, -2983.82, 0.000, 0.000, 0.000, 18:26:27.552
117, -90.61, 105.78, 204.74, -2901.73, 0.000, 0.000, 0.000, 18:26:27.567
118, -96.80, 115.76, 209.47, -2993.90, 0.000, 0.000, 0.000, 18:26:27.567
119, -117.09, 113.76, 206.23, -3065.06, 0.000, 0.000, 0.000, 18:26:27.568
120, -112.79, 104.62, 209.11, -2952.14, 0.000, 0.000, 0.000, 18:26:27.568
121, -85.90, 103.26, 206.35, -2935.21, 0.000, 0.000, 0.000, 18:26:27.582
122, -87.51, 120.69, 202.68, -3044.23, 0.000, 0.000, 0.000, 18:26:27.582
123, -118.76, 123.92, 209.91, -3033.29, 0.000, 0.000, 0.000, 18:26:27.597
124, -108.91, 115.57, 211.50, -2959.59, 0.000, 0.000, 0.000, 18:26:27.597
125, -83.20, 110.46, 203.14, -2972.96, 0.000, 0.000, 0.000, 18:26:27.598
126, -109.18, 109.80, 191.77, -3000.76, 0.000, 0.000, 0.000, 18:26:27.598
127, -123.34, 117.96, 202.48, -3037.29, 0.000, 0.000, 0.000, 18:26:27.612
128, -104.09, 114.15, 203.47, -3018.06, 0.000, 0.000, 0.000, 18:26:27.612
129, -95.58, 111.43, 203.13, -2909.28, 0.000, 0.000, 0.000, 18:26:27.627
130, -100.76, 119.48, 200.57, -2983.22, 0.000, 0.000, 0.000, 18:26:27.627
131, -119.73, 116.13, 199.49, -3063.06, 0.000, 0.000, 0.000, 18:26:27.628
132, -124.42, 103.02, 199.13, -2945.50, 0.000, 0.000, 0.000, 18:26:27.628
133, -99.46, 104.78, 197.90, -2913.78, 0.000, 0.000, 0.000, 18:26:27.642
134, -90.01, 123.99, 195.69, -3028.97, 0.000, 0.000, 0.000, 18:26:27.642
135, -127.25, 115.45, 196.89, -3033.08, 0.000, 0.000, 0.000, 18:26:27.657
136, -115.37, 109.68, 196.79, -2980.88, 0.000, 0.000, 0.000, 18:26:27.657
137, -85.99, 113.06, 194.16, -2949.39, 0.000, 0.000, 0.000, 18:26:27.658
138, -106.55, 112.93, 191.82, -2992.50, 0.000, 0.000, 0.000, 18:26:27.658
139, -122.18, 118.94, 198.85, -3048.01, 0.000, 0.000, 0.000, 18:26:27.672
140, -102.00, 115.19, 196.98, -3016.39, 0.000, 0.000, 0.000, 18:26:27.672
141, -97.46, 108.97, 189.44, -2945.96, 0.000, 0.000, 0.000, 18:26:27.687
142, -103.68, 118.60, 196.02, -3007.62, 0.000, 0.000, 0.000, 18:26:27.687
143, -117.50, 121.32, 197.32, -3058.38, 0.000, 0.000, 0.000, 18:26:27.688
144, -115.69, 108.40, 197.91, -2984.74, 0.000, 0.000, 0.000, 18:26:27.688
145, -92.78, 104.17, 189.78, -2960.79, 0.000, 0.000, 0.000, 18:26:27.702
146, -88.20, 128.77, 189.34, -3060.22, 0.000, 0.000, 0.000, 18:26:27.702
147, -121.80, 125.28, 200.37, -3034.67, 0.000, 0.000, 0.000, 18:26:27.718
148, -111.96, 114.05, 205.99, -2958.18, 0.000, 0.000, 0.000, 18:26:27.718
149, -83.26, 123.80, 211.21, -2935.50, 0.000, 0.000, 0.000, 18:26:27.718
150, -93.61, 132.32, 211.86, -2974.80, 0.000, 0.000, 0.000, 18:26:27.718
151, -118.12, 129.26, 211.61, -3030.31, 0.000, 0.000, 0.000, 18:26:27.747
152, -98.60, 126.40, 203.11, -3013.77, 0.000, 0.000, 0.000, 18:26:27.747
153, -85.54, 129.44, 209.15, -2905.05, 0.000, 0.000, 0.000, 18:26:27.747
154, -94.55, 141.79, 205.23, -2997.33, 0.000, 0.000, 0.000, 18:26:27.747
155, -116.83, 147.87, 204.80, -3038.45, 0.000, 0.000, 0.000, 18:26:27.749
156, -115.06, 133.22, 201.33, -2943.72, 0.000, 0.000, 0.000, 18:26:27.749
157, -82.25, 158.73, 212.16, -2900.18, 0.000, 0.000, 0.000, 18:26:27.762
158, -60.68, 178.36, 195.69, -3055.96, 0.000, 0.000, 0.000, 18:26:27.762
159, -113.80, 184.35, 213.28, -2975.03, 0.000, 0.000, 0.000, 18:26:27.777
160, -104.74, 188.64, 213.48, -2912.73, 0.000, 0.000, 0.000, 18:26:27.777
161, -70.60, 214.29, 217.03, -2854.70, 0.000, 0.000, 0.000, 18:26:27.778
162, -82.69, 229.73, 219.43, -2895.73, 0.000, 0.000, 0.000, 18:26:27.778
163, -94.48, 246.88, 228.06, -2916.22, 0.000, 0.000, 0.000, 18:26:27.792
164, -74.29, 254.06, 220.87, -2900.50, 0.000, 0.000, 0.000, 18:26:27.792
165, -66.77, 249.34, 218.54, -2810.97, 0.000, 0.000, 0.000, 18:26:27.807
166, -72.33, 257.74, 216.18, -2880.52, 0.000, 0.000, 0.000, 18:26:27.807
167, -84.30, 257.76, 224.49, -2983.97, 0.000, 0.000, 0.000, 18:26:27.808
168, -83.88, 236.04, 220.80, -2886.60, 0.000, 0.000, 0.000, 18:26:27.808
169, -70.46, 223.65, 210.62, -2833.57, 0.000, 0.000, 0.000, 18:26:27.822
170, -78.00, 215.59, 196.42, -2952.45, 0.000, 0.000, 0.000, 18:26:27.822
171, -113.82, 192.41, 205.03, -2971.92, 0.000, 0.000, 0.000, 18:26:27.837
172, -107.44, 164.28, 203.83, -2945.67, 0.000, 0.000, 0.000, 18:26:27.837
173, -83.22, 151.97, 197.02, -2915.43, 0.000, 0.000, 0.000, 18:26:27.838
174, -98.78, 151.99, 199.53, -2939.66, 0.000, 0.000, 0.000, 18:26:27.838
175, -123.82, 136.09, 195.79, -3028.30, 0.000, 0.000, 0.000, 18:26:27.852
176, -107.31, 114.40, 189.36, -3016.57, 0.000, 0.000, 0.000, 18:26:27.852
177, -95.94, 101.61, 194.73, -2956.79, 0.000, 0.000, 0.000, 18:26:27.867
178, -110.78, 101.72, 184.00, -3033.39, 0.000, 0.000, 0.000, 18:26:27.867
179, -129.68, 92.09, 185.65, -3092.45, 0.000, 0.000, 0.000, 18:26:27.868
180, -126.89, 77.74, 189.20, -3001.46, 0.000, 0.000, 0.000, 18:26:27.868
181, -109.11, 75.42, 187.45, -2975.34, 0.000, 0.000, 0.000, 18:26:27.882
182, -107.68, 82.99, 180.33, -3083.39, 0.000, 0.000, 0.000, 18:26:27.882
183, -139.67, 71.56, 189.81, -3081.79, 0.000, 0.000, 0.000, 18:26:27.897
184, -129.94, 58.17, 192.92, -3023.21, 0.000, 0.000, 0.000, 18:26:27.897
185, -99.13, 70.17, 192.46, -2979.71, 0.000, 0.000, 0.000, 18:26:27.898
186, -116.36, 71.35, 187.40, -3021.95, 0.000, 0.000, 0.000, 18:26:27.898
187, -139.09, 75.03, 192.11, -3071.41, 0.000, 0.000, 0.000, 18:26:27.912
188, -115.24, 70.00, 192.58, -3039.24, 0.000, 0.000, 0.000, 18:26:27.912
189, -109.73, 62.78, 188.21, -2972.46, 0.000, 0.000, 0.000, 18:26:27.927
190, -110.44, 73.72, 189.67, -3050.67, 0.000, 0.000, 0.000, 18:26:27.927
191, -135.00, 75.69, 192.40, -3071.47, 0.000, 0.000, 0.000, 18:26:27.928
192, -131.68, 68.63, 196.39, -2984.60, 0.000, 0.000, 0.000, 18:26:27.928
193, -105.76, 73.52, 192.77, -2964.24, 0.000, 0.000, 0.000, 18:26:27.942
194, -99.48, 85.69, 189.90, -3072.10, 0.000, 0.000, 0.000, 18:26:27.942
195, -137.38, 80.48, 197.80, -3037.09, 0.000, 0.000, 0.000, 18:26:27.957
196, -128.36, 68.03, 198.67, -2964.36, 0.000, 0.000, 0.000, 18:26:27.957
197, -102.50, 73.44, 190.00, -2972.45, 0.000, 0.000, 0.000, 18:26:27.958
198, -111.65, 84.10, 187.20, -3013.63, 0.000, 0.000, 0.000, 18:26:27.958
199, -130.60, 85.93, 190.03, -3078.73, 0.000, 0.000, 0.000, 18:26:27.972
200, -116.35, 77.92, 188.29, -3031.83, 0.000, 0.000, 0.000, 18:26:27.972
0, -109.39, 72.50, 185.32, -2946.67, 0.000, 0.000, 0.000, 18:26:27.973
1, -104.78, 90.65, 194.88, -3037.09, 0.000, 0.000, 0.000, 18:26:27.987
2, -115.87, 96.12, 189.68, -3112.63, 0.000, 0.000, 0.000, 18:26:27.987
3, -130.26, 83.70, 192.33, -2995.56, 0.000, 0.000, 0.000, 18:26:28.002
4, -108.52, 81.31, 193.17, -2933.29, 0.000, 0.000, 0.000, 18:26:28.002
5, -109.85, 97.85, 188.07, -3012.39, 0.000, 0.000, 0.000, 18:26:28.003
6, -143.84, 89.61, 184.64, -3050.08, 0.000, 0.000, 0.000, 18:26:28.003
7, -130.44, 91.66, 195.39, -2986.94, 0.000, 0.000, 0.000, 18:26:28.017
8, -94.73, 85.09, 189.05, -2962.31, 0.000, 0.000, 0.000, 18:26:28.017
9, -109.42, 93.39, 197.38, -2999.73, 0.000, 0.000, 0.000, 18:26:28.032
10, -141.19, 91.70, 192.11, -3052.99, 0.000, 0.000, 0.000, 18:26:28.032
11, -126.52, 88.94, 191.79, -3008.43, 0.000, 0.000, 0.000, 18:26:28.033
12, -104.73, 89.17, 194.09, -2921.87, 0.000, 0.000, 0.000, 18:26:28.033
13, -107.96, 103.63, 193.38, -2985.79, 0.000, 0.000, 0.000, 18:26:28.062
14, -117.43, 106.55, 191.94, -3094.61, 0.000, 0.000, 0.000, 18:26:28.062
15, -122.27, 96.50, 199.52, -2972.90, 0.000, 0.000, 0.000, 18:26:28.062
16, -99.47, 97.67, 199.36, -2949.84, 0.000, 0.000, 0.000, 18:26:28.062
17, -105.12, 110.70, 193.85, -3029.26, 0.000, 0.000, 0.000, 18:26:28.064
18, -125.16, 108.11, 197.05, -3058.24, 0.000, 0.000, 0.000, 18:26:28.064
19, -120.49, 101.10, 195.66, -3006.19, 0.000, 0.000, 0.000, 18:26:28.077
20, -82.48, 99.25, 180.36, -3010.92, 0.000, 0.000, 0.000, 18:26:28.077
21, -102.85, 117.19, 205.03, -2992.23, 0.000, 0.000, 0.000, 18:26:28.092
22, -122.91, 110.66, 204.90, -3036.66, 0.000, 0.000, 0.000, 18:26:28.092
23, -110.68, 106.96, 205.71, -2995.54, 0.000, 0.000, 0.000, 18:26:28.093
24, -103.02, 104.55, 199.40, -2910.21, 0.000, 0.000, 0.000, 18:26:28.093
25, -108.52, 108.11, 198.03, -2981.26, 0.000, 0.000, 0.000, 18:26:28.107
26, -120.83, 112.44, 197.51, -3054.62, 0.000, 0.000, 0.000, 18:26:28.107
27, -131.44, 99.90, 198.56, -2952.29, 0.000, 0.000, 0.000, 18:26:28.122
28, -108.28, 100.71, 195.83, -2910.02, 0.000, 0.000, 0.000, 18:26:28.122
29, -110.37, 108.99, 190.79, -2998.67, 0.000, 0.000, 0.000, 18:26:28.123
30, -128.94, 112.50, 196.52, -3018.51, 0.000, 0.000, 0.000, 18:26:28.123
31, -125.44, 95.66, 193.93, -2980.81, 0.000, 0.000, 0.000, 18:26:28.137
32, -97.21, 109.13, 196.66, -2941.57, 0.000, 0.000, 0.000, 18:26:28.138
33, -99.86, 112.86, 205.39, -2983.05, 0.000, 0.000, 0.000, 18:26:28.152
34, -120.96, 111.62, 203.11, -3058.91, 0.000, 0.000, 0.000, 18:26:28.152
35, -112.20, 103.67, 199.94, -3003.79, 0.000, 0.000, 0.000, 18:26:28.153
36, -93.59, 105.02, 203.40, -2916.75, 0.000, 0.000, 0.000, 18:26:28.153
37, -93.99, 113.84, 197.64, -3009.54, 0.000, 0.000, 0.000, 18:26:28.167
38, -110.42, 123.15, 196.77, -3070.72, 0.000, 0.000, 0.000, 18:26:28.167
39, -124.54, 96.08, 198.95, -2938.28, 0.000, 0.000, 0.000, 18:26:28.182
40, -99.03, 102.16, 207.27, -2906.05, 0.000, 0.000, 0.000, 18:26:28.182
41, -100.08, 117.62, 201.77, -3000.46, 0.000, 0.000, 0.000, 18:26:28.183
42, -126.56, 115.79, 207.43, -3029.38, 0.000, 0.000, 0.000, 18:26:28.183
43, -119.29, 101.76, 202.94, -2976.85, 0.000, 0.000, 0.000, 18:26:28.197
44, -83.20, 113.56, 196.51, -2961.55, 0.000, 0.000, 0.000, 18:26:28.197
45, -96.40, 120.13, 206.98, -2989.43, 0.000, 0.000, 0.000, 18:26:28.212
46, -117.39, 115.91, 205.43, -3041.49, 0.000, 0.000, 0.000, 18:26:28.212
47, -105.07, 116.74, 210.63, -3000.37, 0.000, 0.000, 0.000, 18:26:28.213
48, -96.18, 108.05, 199.03, -2912.86, 0.000, 0.000, 0.000, 18:26:28.213
49, -99.86, 113.63, 195.66, -2999.31, 0.000, 0.000, 0.000, 18:26:28.227
50, -110.12, 116.43, 192.16, -3109.85, 0.000, 0.000, 0.000, 18:26:28.227
51, -114.71, 108.51, 207.22, -2974.61, 0.000, 0.000, 0.000, 18:26:28.242
52, -83.58, 118.07, 211.16, -2913.15, 0.000, 0.000, 0.000, 18:26:28.242
53, -96.06, 117.66, 197.07, -3011.85, 0.000, 0.000, 0.000, 18:26:28.243
54, -116.46, 117.57, 209.34, -3021.95, 0.000, 0.000, 0.000, 18:26:28.243
55, -109.10, 106.27, 212.92, -2968.63, 0.000, 0.000, 0.000, 18:26:28.257
56, -81.54, 110.87, 196.89, -2963.13, 0.000, 0.000, 0.000, 18:26:28.257
57, -100.81, 117.73, 207.63, -2989.31, 0.000, 0.000, 0.000, 18:26:28.272
58, -121.20, 118.17, 210.67, -3033.75, 0.000, 0.000, 0.000, 18:26:28.272
59, -111.89, 111.09, 197.87, -3003.66, 0.000, 0.000, 0.000, 18:26:28.273
60, -103.54, 103.23, 191.93, -2921.25, 0.000, 0.000, 0.000, 18:26:28.273
61, -91.71, 127.14, 201.72, -3016.65, 0.000, 0.000, 0.000, 18:26:28.287
62, -111.50, 123.87, 191.59, -3099.61, 0.000, 0.000, 0.000, 18:26:28.287
63, -115.36, 108.81, 201.33, -2965.19, 0.000, 0.000, 0.000, 18:26:28.302
64, -88.33, 118.52, 206.26, -2912.58, 0.000, 0.000, 0.000, 18:26:28.302
65, -92.85, 123.07, 199.86, -3012.65, 0.000, 0.000, 0.000, 18:26:28.303
66, -131.46, 118.84, 200.88, -3028.97, 0.000, 0.000, 0.000, 18:26:28.303
67, -116.12, 113.89, 206.48, -2992.12, 0.000, 0.000, 0.000, 18:26:28.317
68, -83.92, 121.23, 189.88, -2964.29, 0.000, 0.000, 0.000, 18:26:28.317
69, -102.31, 125.35, 203.21, -2962.26, 0.000, 0.000, 0.000, 18:26:28.332
70, -116.62, 123.12, 207.90, -3051.35, 0.000, 0.000, 0.000, 18:26:28.332
71, -108.55, 110.39, 195.47, -2993.88, 0.000, 0.000, 0.000, 18:26:28.333
72, -97.16, 103.18, 200.44, -2911.46, 0.000, 0.000, 0.000, 18:26:28.333
73, -97.79, 122.70, 205.01, -2984.11, 0.000, 0.000, 0.000, 18:26:28.347
74, -110.76, 123.59, 200.86, -3074.63, 0.000, 0.000, 0.000, 18:26:28.347
75, -118.22, 113.41, 206.92, -2979.03, 0.000, 0.000, 0.000, 18:26:28.362
76, -92.29, 110.32, 205.11, -2928.91, 0.000, 0.000, 0.000, 18:26:28.362
77, -106.61, 113.06, 192.01, -2998.72, 0.000, 0.000, 0.000, 18:26:28.363
78, -132.12, 115.73, 198.53, -3032.18, 0.000, 0.000, 0.000, 18:26:28.363
79, -123.37, 109.85, 204.93, -2957.86, 0.000, 0.000, 0.000, 18:26:28.392
80, -96.40, 110.69, 194.25, -2952.67, 0.000, 0.000, 0.000, 18:26:28.392
81, -114.15, 110.36, 193.63, -2989.46, 0.000, 0.000, 0.000, 18:26:28.393
82, -133.13, 112.17, 194.35, -3043.74, 0.000, 0.000, 0.000, 18:26:28.393
83, -130.48, 103.50, 190.85, -2970.74, 0.000, 0.000, 0.000, 18:26:28.393
84, -107.96, 103.84, 192.57, -2888.73, 0.000, 0.000, 0.000, 18:26:28.393
85, -110.27, 117.47, 190.67, -2984.68, 0.000, 0.000, 0.000, 18:26:28.407
86, -105.18, 119.14, 184.35, -3135.77, 0.000, 0.000, 0.000, 18:26:28.407
87, -124.85, 107.73, 201.04, -2977.44, 0.000, 0.000, 0.000, 18:26:28.422
88, -100.06, 100.21, 195.67, -2939.93, 0.000, 0.000, 0.000, 18:26:28.422
89, -95.55, 118.23, 187.27, -3041.17, 0.000, 0.000, 0.000, 18:26:28.423
90, -125.24, 111.84, 188.11, -3069.95, 0.000, 0.000, 0.000, 18:26:28.423
91, -108.89, 109.60, 193.94, -3031.02, 0.000, 0.000, 0.000, 18:26:28.437
92, -82.52, 111.24, 183.65, -2994.09, 0.000, 0.000, 0.000, 18:26:28.438
93, -99.51, 115.41, 190.74, -2991.20, 0.000, 0.000, 0.000, 18:26:28.452
94, -118.85, 122.80, 203.07, -3031.47, 0.000, 0.000, 0.000, 18:26:28.452
95, -115.94, 108.31, 198.47, -2968.27, 0.000, 0.000, 0.000, 18:26:28.453
96, -97.54, 109.92, 203.11, -2915.69, 0.000, 0.000, 0.000, 18:26:28.453
97, -98.36, 117.24, 198.83, -2966.32, 0.000, 0.000, 0.000, 18:26:28.467
98, -108.04, 124.44, 203.22, -3066.72, 0.000, 0.000, 0.000, 18:26:28.467
99, -123.03, 111.64, 201.94, -2978.95, 0.000, 0.000, 0.000, 18:26:28.482
100, -92.83, 114.69, 198.98, -2948.29, 0.000, 0.000, 0.000, 18:26:28.482
101, -91.38, 123.74, 192.94, -3041.26, 0.000, 0.000, 0.000, 18:26:28.483
102, -125.32, 124.92, 200.04, -3037.14, 0.000, 0.000, 0.000, 18:26:28.483
103, -127.99, 106.95, 201.21, -2979.31, 0.000, 0.000, 0.000, 18:26:28.498
104, -91.23, 108.21, 192.83, -2985.58, 0.000, 0.000, 0.000, 18:26:28.498
105, -103.86, 114.34, 195.83, -2987.12, 0.000, 0.000, 0.000, 18:26:28.512
106, -119.31, 123.50, 206.95, -3043.56, 0.000, 0.000, 0.000, 18:26:28.512
107, -112.23, 117.90, 201.25, -2985.63, 0.000, 0.000, 0.000, 18:26:28.513
108, -101.61, 110.93, 204.23, -2876.52, 0.000, 0.000, 0.000, 18:26:28.513
109, -103.58, 120.37, 204.36, -2976.95, 0.000, 0.000, 0.000, 18:26:28.527
110, -112.03, 128.17, 198.37, -3069.21, 0.000, 0.000, 0.000, 18:26:28.527
111, -116.37, 115.30, 204.38, -2977.89, 0.000, 0.000, 0.000, 18:26:28.542
112, -96.44, 112.52, 199.82, -2933.63, 0.000, 0.000, 0.000, 18:26:28.542
113, -88.33, 125.24, 202.24, -2994.73, 0.000, 0.000, 0.000, 18:26:28.543
114, -117.65, 122.93, 207.25, -3027.65, 0.000, 0.000, 0.000, 18:26:28.543
115, -118.09, 110.88, 201.23, -2982.34, 0.000, 0.000, 0.000, 18:26:28.557
116, -85.59, 117.44, 198.12, -2967.06, 0.000, 0.000, 0.000, 18:26:28.557
117, -89.22, 127.15, 206.90, -2990.67, 0.000, 0.000, 0.000, 18:26:28.572
118, -114.91, 123.96, 204.22, -3059.27, 0.000, 0.000, 0.000, 18:26:28.572
119, -105.39, 116.14, 204.71, -2999.72, 0.000, 0.000, 0.000, 18:26:28.573
120, -99.28, 107.75, 196.72, -2895.67, 0.000, 0.000, 0.000, 18:26:28.573
121, -105.30, 115.10, 187.97, -3003.33, 0.000, 0.000, 0.000, 18:26:28.587
122, -111.43, 126.32, 194.47, -3058.70, 0.000, 0.000, 0.000, 18:26:28.587
123, -124.54, 110.82, 208.41, -2935.95, 0.000, 0.000, 0.000, 18:26:28.602
124, -104.21, 102.06, 200.25, -2912.08, 0.000, 0.000, 0.000, 18:26:28.602
125, -101.76, 118.18, 201.13, -2995.31, 0.000, 0.000, 0.000, 18:26:28.603
126, -131.53, 114.12, 198.54, -3006.73, 0.000, 0.000, 0.000, 18:26:28.603
127, -125.50, 106.29, 202.32, -2969.24, 0.000, 0.000, 0.000, 18:26:28.617
128, -92.63, 108.34, 187.28, -2972.03, 0.000, 0.000, 0.000, 18:26:28.617
129, -111.48, 116.19, 190.58, -2982.68, 0.000, 0.000, 0.000, 18:26:28.632
130, -124.52, 118.22, 198.92, -3030.50, 0.000, 0.000, 0.000, 18:26:28.632
131, -118.94, 112.56, 193.05, -2971.38, 0.000, 0.000, 0.000, 18:26:28.633
132, -99.96, 112.37, 201.28, -2904.31, 0.000, 0.000, 0.000, 18:26:28.633
133, -107.00, 119.37, 195.28, -2969.45, 0.000, 0.000, 0.000, 18:26:28.647
134, -121.39, 116.16, 191.83, -3076.57, 0.000, 0.000, 0.000, 18:26:28.647
135, -126.89, 108.39, 207.01, -2946.98, 0.000, 0.000, 0.000, 18:26:28.662
136, -104.17, 105.38, 201.67, -2897.38, 0.000, 0.000, 0.000, 18:26:28.662
137, -99.47, 121.45, 196.18, -3013.90, 0.000, 0.000, 0.000, 18:26:28.663
138, -124.41, 117.88, 202.05, -3033.24, 0.000, 0.000, 0.000, 18:26:28.663
139, -112.33, 117.54, 212.47, -2957.60, 0.000, 0.000, 0.000, 18:26:28.677
140, -88.47, 105.13, 189.18, -2944.86, 0.000, 0.000, 0.000, 18:26:28.678
141, -109.90, 113.12, 196.18, -2953.25, 0.000, 0.000, 0.000, 18:26:28.707
142, -124.67, 114.85, 208.89, -3010.74, 0.000, 0.000, 0.000, 18:26:28.707
143, -113.88, 113.15, 203.79, -2997.92, 0.000, 0.000, 0.000, 18:26:28.707
144, -98.96, 108.99, 196.63, -2940.09, 0.000, 0.000, 0.000, 18:26:28.707
145, -97.66, 117.88, 195.08, -3007.88, 0.000, 0.000, 0.000, 18:26:28.708
146, -125.91, 113.11, 191.33, -3052.72, 0.000, 0.000, 0.000, 18:26:28.708
147, -118.45, 113.02, 201.53, -2981.35, 0.000, 0.000, 0.000, 18:26:28.709
148, -84.28, 116.79, 206.45, -2938.24, 0.000, 0.000, 0.000, 18:26:28.709
149, -54.68, 134.66, 184.35, -3137.88, 0.000, 0.000, 0.000, 18:26:28.722
150, -129.39, 120.08, 200.45, -3001.31, 0.000, 0.000, 0.000, 18:26:28.722
151, -124.44, 111.76, 199.66, -2958.73, 0.000, 0.000, 0.000, 18:26:28.737
152, -98.12, 108.21, 197.52, -2922.84, 0.000, 0.000, 0.000, 18:26:28.738
153, -101.79, 117.29, 204.12, -2966.17, 0.000, 0.000, 0.000, 18:26:28.754
154, -124.46, 117.35, 202.83, -3027.10, 0.000, 0.000, 0.000, 18:26:28.754
155, -110.23, 120.38, 209.87, -3013.96, 0.000, 0.000, 0.000, 18:26:28.754
156, -98.24, 108.95, 202.20, -2916.89, 0.000, 0.000, 0.000, 18:26:28.754
157, -105.51, 114.70, 195.27, -2985.71, 0.000, 0.000, 0.000, 18:26:28.767
158, -105.23, 127.35, 201.85, -3065.54, 0.000, 0.000, 0.000, 18:26:28.767
159, -122.86, 98.79, 199.64, -2955.67, 0.000, 0.000, 0.000, 18:26:28.782
160, -93.43, 105.49, 198.69, -2948.10, 0.000, 0.000, 0.000, 18:26:28.782
161, -93.02, 115.73, 195.64, -3023.54, 0.000, 0.000, 0.000, 18:26:28.783
162, -110.74, 120.51, 204.84, -3052.21, 0.000, 0.000, 0.000, 18:26:28.783
163, -108.85, 106.19, 205.36, -2996.13, 0.000, 0.000, 0.000, 18:26:28.797
164, -78.58, 114.74, 196.31, -2980.89, 0.000, 0.000, 0.000, 18:26:28.797
165, -101.34, 110.22, 193.98, -2997.02, 0.000, 0.000, 0.000, 18:26:28.812
166, -110.66, 122.83, 201.71, -3030.56, 0.000, 0.000, 0.000, 18:26:28.812
167, -109.75, 110.99, 202.66, -2993.13, 0.000, 0.000, 0.000, 18:26:28.813
168, -94.37, 106.57, 202.75, -2918.89, 0.000, 0.000, 0.000, 18:26:28.813
169, -91.56, 122.83, 206.51, -2977.75, 0.000, 0.000, 0.000, 18:26:28.827
170, -97.62, 124.68, 205.50, -3096.57, 0.000, 0.000, 0.000, 18:26:28.828
171, -107.94, 113.93, 211.41, -2990.64, 0.000, 0.000, 0.000, 18:26:28.842
172, -92.21, 105.90, 201.49, -2940.17, 0.000, 0.000, 0.000, 18:26:28.842
173, -86.88, 125.45, 200.36, -3001.51, 0.000, 0.000, 0.000, 18:26:28.843
174, -115.31, 128.49, 208.26, -3037.39, 0.000, 0.000, 0.000, 18:26:28.843
175, -116.76, 114.10, 207.41, -3002.92, 0.000, 0.000, 0.000, 18:26:28.857
176, -80.02, 114.72, 197.40, -2967.94, 0.000, 0.000, 0.000, 18:26:28.857
177, -104.10, 117.66, 198.92, -2967.86, 0.000, 0.000, 0.000, 18:26:28.872
178, -120.11, 123.39, 206.97, -3023.88, 0.000, 0.000, 0.000, 18:26:28.872
179, -122.42, 112.54, 201.12, -2967.48, 0.000, 0.000, 0.000, 18:26:28.873
180, -114.50, 102.48, 198.91, -2882.41, 0.000, 0.000, 0.000, 18:26:28.873
181, -113.18, 111.26, 195.89, -2975.72, 0.000, 0.000, 0.000, 18:26:28.887
182, -121.55, 121.33, 196.78, -3065.92, 0.000, 0.000, 0.000, 18:26:28.887
183, -131.67, 112.72, 202.21, -2964.51, 0.000, 0.000, 0.000, 18:26:28.902
184, -101.65, 107.13, 199.97, -2922.98, 0.000, 0.000, 0.000, 18:26:28.902
185, -105.68, 114.74, 190.69, -2995.13, 0.000, 0.000, 0.000, 18:26:28.903
186, -133.91, 111.16, 195.35, -3037.28, 0.000, 0.000, 0.000, 18:26:28.903
187, -127.35, 103.43, 195.77, -2980.77, 0.000, 0.000, 0.000, 18:26:28.917
188, -93.74, 107.50, 190.01, -2974.21, 0.000, 0.000, 0.000, 18:26:28.917
189, -104.53, 111.11, 194.78, -2976.05, 0.000, 0.000, 0.000, 18:26:28.932
190, -124.50, 114.91, 198.01, -3047.57, 0.000, 0.000, 0.000, 18:26:28.932
191, -113.15, 108.71, 197.36, -3013.71, 0.000, 0.000, 0.000, 18:26:28.933
192, -89.25, 114.33, 201.06, -2943.95, 0.000, 0.000, 0.000, 18:26:28.933
193, -94.72, 117.20, 194.14, -2997.45, 0.000, 0.000, 0.000, 18:26:28.947
194, -99.71, 130.85, 199.65, -3082.34, 0.000, 0.000, 0.000, 18:26:28.947
195, -118.13, 119.26, 207.32, -2956.46, 0.000, 0.000, 0.000, 18:26:28.962
196, -97.99, 116.83, 201.14, -2916.96, 0.000, 0.000, 0.000, 18:26:28.962
197, -98.15, 118.95, 190.91, -3001.08, 0.000, 0.000, 0.000, 18:26:28.963
198, -119.63, 126.74, 200.72, -3022.53, 0.000, 0.000, 0.000, 18:26:28.963
199, -127.65, 106.70, 199.13, -2987.05, 0.000, 0.000, 0.000, 18:26:28.977
200, -88.99, 107.17, 190.87, -2974.13, 0.000, 0.000, 0.000, 18:26:28.977
0, -101.35, 120.88, 202.64, -2977.64, 0.000, 0.000, 0.000, 18:26:28.978
1, -125.92, 118.05, 199.92, -3035.88, 0.000, 0.000, 0.000, 18:26:28.992
2, -110.58, 114.32, 202.15, -3024.55, 0.000, 0.000, 0.000, 18:26:28.992
3, -98.25, 117.55, 204.76, -2908.88, 0.000, 0.000, 0.000, 18:26:29.022
4, -99.31, 123.16, 199.27, -2978.61, 0.000, 0.000, 0.000, 18:26:29.022
5, -115.74, 129.30, 206.28, -3061.86, 0.000, 0.000, 0.000, 18:26:29.023
6, -119.71, 116.26, 207.79, -2963.10, 0.000, 0.000, 0.000, 18:26:29.023
7, -97.65, 111.19, 206.65, -2934.16, 0.000, 0.000, 0.000, 18:26:29.023
8, -96.00, 118.45, 195.19, -2995.22, 0.000, 0.000, 0.000, 18:26:29.023
9, -122.90, 119.84, 201.96, -3022.76, 0.000, 0.000, 0.000, 18:26:29.024
10, -120.88, 108.51, 202.58, -2976.96, 0.000, 0.000, 0.000, 18:26:29.024
11, -53.32, 124.31, 192.39, -3027.23, 0.000, 0.000, 0.000, 18:26:29.037
12, -111.58, 116.17, 201.24, -2972.65, 0.000, 0.000, 0.000, 18:26:29.037
13, -122.88, 124.44, 208.95, -3003.61, 0.000, 0.000, 0.000, 18:26:29.052
14, -116.51, 108.78, 203.19, -2988.10, 0.000, 0.000, 0.000, 18:26:29.052
15, -99.84, 114.86, 207.36, -2881.49, 0.000, 0.000, 0.000, 18:26:29.067
16, -97.94, 121.69, 208.40, -2952.91, 0.000, 0.000, 0.000, 18:26:29.067
17, -114.28, 119.22, 200.15, -3066.82, 0.000, 0.000, 0.000, 18:26:29.068
18, -127.28, 105.95, 198.46, -2992.19, 0.000, 0.000, 0.000, 18:26:29.068
19, -98.92, 110.77, 199.56, -2932.23, 0.000, 0.000, 0.000, 18:26:29.082
20, -89.43, 118.59, 195.92, -3007.83, 0.000, 0.000, 0.000, 18:26:29.082
21, -122.26, 116.09, 203.49, -3042.54, 0.000, 0.000, 0.000, 18:26:29.097
22, -110.54, 104.01, 211.16, -3004.12, 0.000, 0.000, 0.000, 18:26:29.097
23, -101.16, 106.95, 187.69, -2956.45, 0.000, 0.000, 0.000, 18:26:29.098
24, -99.68, 126.37, 199.31, -2969.22, 0.000, 0.000, 0.000, 18:26:29.098
25, -118.63, 126.34, 204.02, -3047.31, 0.000, 0.000, 0.000, 18:26:29.112
26, -101.15, 126.03, 200.68, -3026.61, 0.000, 0.000, 0.000, 18:26:29.113
27, -94.13, 118.63, 204.55, -2917.46, 0.000, 0.000, 0.000, 18:26:29.127
28, -96.99, 122.19, 197.15, -3014.65, 0.000, 0.000, 0.000, 18:26:29.127
29, -119.26, 120.72, 194.40, -3063.81, 0.000, 0.000, 0.000, 18:26:29.128
30, -123.60, 117.20, 206.01, -2960.15, 0.000, 0.000, 0.000, 18:26:29.128
31, -96.24, 113.60, 203.43, -2907.34, 0.000, 0.000, 0.000, 18:26:29.142
32, -95.44, 116.34, 189.26, -3025.00, 0.000, 0.000, 0.000, 18:26:29.142
33, -129.91, 118.61, 199.73, -3039.04, 0.000, 0.000, 0.000, 18:26:29.157
34, -121.47, 107.94, 204.37, -2984.92, 0.000, 0.000, 0.000, 18:26:29.157
35, -98.33, 107.63, 197.42, -2938.67, 0.000, 0.000, 0.000, 18:26:29.158
36, -106.43, 121.19, 197.98, -2977.41, 0.000, 0.000, 0.000, 18:26:29.158
37, -125.81, 121.23, 206.14, -3024.28, 0.000, 0.000, 0.000, 18:26:29.172
38, -106.90, 118.91, 202.92, -3014.56, 0.000, 0.000, 0.000, 18:26:29.172
39, -96.10, 103.79, 203.61, -2938.85, 0.000, 0.000, 0.000, 18:26:29.187
40, -95.55, 108.30, 203.37, -2994.88, 0.000, 0.000, 0.000, 18:26:29.187
41, -116.79, 118.45, 197.53, -3040.48, 0.000, 0.000, 0.000, 18:26:29.188
42, -124.07, 110.42, 201.90, -2967.00, 0.000, 0.000, 0.000, 18:26:29.188
43, -97.03, 115.01, 201.63, -2943.95, 0.000, 0.000, 0.000, 18:26:29.202
44, -86.63, 127.52, 191.73, -3040.41, 0.000, 0.000, 0.000, 18:26:29.202
45, -126.14, 119.66, 198.56, -3050.78, 0.000, 0.000, 0.000, 18:26:29.217
46, -120.39, 106.98, 197.93, -2988.49, 0.000, 0.000, 0.000, 18:26:29.217
47, -94.37, 111.20, 198.44, -2937.78, 0.000, 0.000, 0.000, 18:26:29.218
48, -102.49, 115.31, 198.05, -2976.51, 0.000, 0.000, 0.000, 18:26:29.218
49, -122.13, 121.07, 198.67, -3026.88, 0.000, 0.000, 0.000, 18:26:29.232
50, -114.58, 116.30, 199.93, -3024.09, 0.000, 0.000, 0.000, 18:26:29.232
51, -100.89, 108.90, 200.65, -2890.18, 0.000, 0.000, 0.000, 18:26:29.247
52, -100.29, 128.59, 204.08, -2939.72, 0.000, 0.000, 0.000, 18:26:29.247
53, -120.69, 120.86, 197.60, -3051.67, 0.000, 0.000, 0.000, 18:26:29.248
54, -127.73, 108.00, 202.54, -2977.66, 0.000, 0.000, 0.000, 18:26:29.248
55, -103.97, 105.74, 190.46, -2939.45, 0.000, 0.000, 0.000, 18:26:29.262
56, -92.04, 120.97, 184.89, -3031.17, 0.000, 0.000, 0.000, 18:26:29.262
57, -135.59, 110.13, 192.95, -3043.05, 0.000, 0.000, 0.000, 18:26:29.277
58, -121.33, 112.47, 202.67, -2991.94, 0.000, 0.000, 0.000, 18:26:29.277
59, -92.42, 114.96, 195.09, -2945.92, 0.000, 0.000, 0.000, 18:26:29.278
60, -99.57, 114.44, 195.38, -2991.58, 0.000, 0.000, 0.000, 18:26:29.278
61, -116.14, 116.39, 199.11, -3063.25, 0.000, 0.000, 0.000, 18:26:29.292
62, -109.64, 113.73, 195.24, -3031.57, 0.000, 0.000, 0.000, 18:26:29.292
63, -102.01, 112.48, 198.14, -2918.64, 0.000, 0.000, 0.000, 18:26:29.307
64, -99.01, 120.39, 199.58, -2954.50, 0.000, 0.000, 0.000, 18:26:29.307
65, -115.91, 125.85, 201.57, -3066.28, 0.000, 0.000, 0.000, 18:26:29.308
66, -127.11, 112.69, 202.67, -2956.84, 0.000, 0.000, 0.000, 18:26:29.308
67, -98.90, 107.64, 199.61, -2928.48, 0.000, 0.000, 0.000, 18:26:29.322
68, -83.85, 121.95, 197.09, -3041.09, 0.000, 0.000, 0.000, 18:26:29.322
69, -122.68, 123.04, 201.72, -3016.28, 0.000, 0.000, 0.000, 18:26:29.352
70, -124.39, 107.85, 202.28, -2988.39, 0.000, 0.000, 0.000, 18:26:29.352
71, -95.95, 100.92, 189.49, -2964.54, 0.000, 0.000, 0.000, 18:26:29.353
72, -97.75, 116.70, 202.77, -2969.43, 0.000, 0.000, 0.000, 18:26:29.353
73, -117.24, 120.42, 205.14, -3026.71, 0.000, 0.000, 0.000, 18:26:29.353
74, -116.81, 113.06, 206.35, -2976.73, 0.000, 0.000, 0.000, 18:26:29.353
75, -103.09, 107.78, 206.40, -2916.27, 0.000, 0.000, 0.000, 18:26:29.354
76, -103.48, 114.82, 198.35, -2973.07, 0.000, 0.000, 0.000, 18:26:29.354
77, -90.16, 123.18, 189.71, -3156.42, 0.000, 0.000, 0.000, 18:26:29.367
78, -131.09, 103.67, 206.79, -2959.33, 0.000, 0.000, 0.000, 18:26:29.367
79, -102.40, 100.86, 199.31, -2909.81, 0.000, 0.000, 0.000, 18:26:29.382
80, -96.54, 115.43, 193.84, -2983.87, 0.000, 0.000, 0.000, 18:26:29.382
81, -132.43, 112.71, 197.09, -3014.23, 0.000, 0.000, 0.000, 18:26:29.397
82, -134.59, 103.14, 197.56, -2988.45, 0.000, 0.000, 0.000, 18:26:29.397
83, -93.41, 110.86, 198.19, -2960.02, 0.000, 0.000, 0.000, 18:26:29.398
84, -103.10, 111.84, 194.23, -2957.61, 0.000, 0.000, 0.000, 18:26:29.398
85, -121.50, 120.93, 204.92, -3031.67, 0.000, 0.000, 0.000, 18:26:29.412
86, -105.07, 121.42, 206.43, -3000.88, 0.000, 0.000, 0.000, 18:26:29.412
87, -95.81, 102.82, 209.60, -2910.84, 0.000, 0.000, 0.000, 18:26:29.428
88, -102.41, 114.37, 199.51, -2953.97, 0.000, 0.000, 0.000, 18:26:29.428
89, -121.85, 131.44, 201.59, -3060.77, 0.000, 0.000, 0.000, 18:26:29.428
90, -132.07, 117.31, 201.97, -2969.12, 0.000, 0.000, 0.000, 18:26:29.428
91, -98.94, 109.44, 199.97, -2931.47, 0.000, 0.000, 0.000, 18:26:29.442
92, -81.85, 130.06, 193.14, -3021.32, 0.000, 0.000, 0.000, 18:26:29.442
93, -125.19, 122.84, 202.98, -3015.41, 0.000, 0.000, 0.000, 18:26:29.457
94, -127.22, 117.85, 210.42, -2943.37, 0.000, 0.000, 0.000, 18:26:29.457
95, -98.72, 107.70, 198.38, -2930.27, 0.000, 0.000, 0.000, 18:26:29.458
96, -109.17, 111.25, 191.55, -2971.44, 0.000, 0.000, 0.000, 18:26:29.458
97, -129.39, 117.04, 194.41, -3026.54, 0.000, 0.000, 0.000, 18:26:29.472
98, -111.46, 111.25, 194.87, -3048.81, 0.000, 0.000, 0.000, 18:26:29.472
99, -108.08, 107.45, 197.97, -2902.82, 0.000, 0.000, 0.000, 18:26:29.487
100, -105.19, 116.60, 203.19, -2928.38, 0.000, 0.000, 0.000, 18:26:29.487
101, -132.70, 116.69, 193.40, -3040.00, 0.000, 0.000, 0.000, 18:26:29.488
102, -131.59, 106.21, 204.42, -2951.17, 0.000, 0.000, 0.000, 18:26:29.488
103, -106.92, 103.51, 194.67, -2924.04, 0.000, 0.000, 0.000, 18:26:29.502
104, -86.12, 118.63, 187.54, -3040.62, 0.000, 0.000, 0.000, 18:26:29.502
105, -128.90, 113.06, 192.19, -3045.21, 0.000, 0.000, 0.000, 18:26:29.517
106, -124.86, 108.54, 197.56, -2988.77, 0.000, 0.000, 0.000, 18:26:29.517
107, -105.67, 101.88, 184.39, -2971.72, 0.000, 0.000, 0.000, 18:26:29.518
108, -100.80, 119.85, 194.45, -2980.70, 0.000, 0.000, 0.000, 18:26:29.518
109, -119.81, 119.91, 204.16, -3037.53, 0.000, 0.000, 0.000, 18:26:29.532
110, -111.13, 113.35, 196.60, -3035.00, 0.000, 0.000, 0.000, 18:26:29.532
111, -100.66, 108.71, 197.09, -2925.43, 0.000, 0.000, 0.000, 18:26:29.547
112, -98.75, 116.65, 201.58, -2973.93, 0.000, 0.000, 0.000, 18:26:29.547
113, -115.32, 122.69, 198.03, -3067.63, 0.000, 0.000, 0.000, 18:26:29.548
114, -121.56, 111.65, 200.66, -3003.17, 0.000, 0.000, 0.000, 18:26:29.548
115, -97.27, 103.87, 190.72, -2965.51, 0.000, 0.000, 0.000, 18:26:29.562
116, -84.32, 121.10, 188.03, -3039.71, 0.000, 0.000, 0.000, 18:26:29.562
117, -118.12, 118.92, 196.77, -3040.65, 0.000, 0.000, 0.000, 18:26:29.577
118, -126.86, 103.14, 192.24, -3012.49, 0.000, 0.000, 0.000, 18:26:29.577
119, -100.25, 104.28, 185.26, -2952.95, 0.000, 0.000, 0.000, 18:26:29.578
120, -100.38, 118.46, 197.03, -2945.43, 0.000, 0.000, 0.000, 18:26:29.578
121, -126.96, 113.27, 195.52, -3044.75, 0.000, 0.000, 0.000, 18:26:29.592
122, -104.38, 120.55, 204.61, -3036.27, 0.000, 0.000, 0.000, 18:26:29.592
123, -90.85, 114.32, 209.03, -2917.17, 0.000, 0.000, 0.000, 18:26:29.607
124, -90.31, 120.43, 207.70, -2960.32, 0.000, 0.000, 0.000, 18:26:29.607
125, -108.49, 124.62, 202.70, -3083.02, 0.000, 0.000, 0.000, 18:26:29.608
126, -116.00, 119.36, 207.34, -3013.87, 0.000, 0.000, 0.000, 18:26:29.608
127, -91.91, 113.16, 206.39, -2941.25, 0.000, 0.000, 0.000, 18:26:29.622
128, -77.62, 126.94, 199.57, -3039.73, 0.000, 0.000, 0.000, 18:26:29.622
129, -117.72, 126.86, 197.76, -3049.20, 0.000, 0.000, 0.000, 18:26:29.637
130, -113.42, 113.63, 203.86, -3009.75, 0.000, 0.000, 0.000, 18:26:29.637
131, -94.87, 117.63, 200.84, -2937.43, 0.000, 0.000, 0.000, 18:26:29.638
132, -100.25, 118.77, 202.09, -2966.31, 0.000, 0.000, 0.000, 18:26:29.638
133, -127.41, 113.60, 194.95, -3044.44, 0.000, 0.000, 0.000, 18:26:29.667
134, -114.44, 112.32, 197.61, -3049.01, 0.000, 0.000, 0.000, 18:26:29.667
135, -94.86, 108.10, 210.49, -2916.41, 0.000, 0.000, 0.000, 18:26:29.668
136, -91.60, 118.25, 200.89, -2990.59, 0.000, 0.000, 0.000, 18:26:29.668
137, -115.38, 122.10, 200.22, -3044.90, 0.000, 0.000, 0.000, 18:26:29.669
138, -121.37, 109.83, 206.85, -2982.21, 0.000, 0.000, 0.000, 18:26:29.669
139, -98.21, 109.58, 203.62, -2913.08, 0.000, 0.000, 0.000, 18:26:29.682
140, -72.97, 124.95, 187.61, -3066.41, 0.000, 0.000, 0.000, 18:26:29.682
141, -125.82, 126.63, 213.47, -3015.68, 0.000, 0.000, 0.000, 18:26:29.697
142, -126.59, 116.30, 209.35, -2988.38, 0.000, 0.000, 0.000, 18:26:29.697
143, -93.28, 118.83, 205.98, -2942.36, 0.000, 0.000, 0.000, 18:26:29.698
144, -100.84, 120.83, 200.10, -2939.84, 0.000, 0.000, 0.000, 18:26:29.698
145, -123.27, 117.97, 200.35, -3021.05, 0.000, 0.000, 0.000, 18:26:29.712
146, -120.24, 108.23, 196.28, -3006.81, 0.000, 0.000, 0.000, 18:26:29.712
147, -109.98, 99.12, 198.10, -2898.85, 0.000, 0.000, 0.000, 18:26:29.727
148, -97.10, 115.27, 202.46, -2959.49, 0.000, 0.000, 0.000, 18:26:29.727
149, -119.11, 125.32, 198.70, -3043.95, 0.000, 0.000, 0.000, 18:26:29.728
150, -124.16, 104.12, 202.17, -2987.83, 0.000, 0.000, 0.000, 18:26:29.728
151, -88.21, 115.76, 208.89, -2937.60, 0.000, 0.000, 0.000, 18:26:29.742
152, -74.85, 132.91, 209.07, -3009.67, 0.000, 0.000, 0.000, 18:26:29.742
153, -114.16, 132.91, 214.03, -3013.37, 0.000, 0.000, 0.000, 18:26:29.757
154, -111.18, 113.30, 211.66, -2992.76, 0.000, 0.000, 0.000, 18:26:29.757
155, -85.17, 118.32, 205.82, -2926.65, 0.000, 0.000, 0.000, 18:26:29.758
156, -96.67, 116.75, 205.12, -2960.40, 0.000, 0.000, 0.000, 18:26:29.758
157, -121.80, 113.93, 202.52, -3049.40, 0.000, 0.000, 0.000, 18:26:29.772
158, -102.01, 115.85, 211.62, -3039.02, 0.000, 0.000, 0.000, 18:26:29.773
159, -91.69, 104.93, 207.66, -2936.99, 0.000, 0.000, 0.000, 18:26:29.787
160, -93.48, 119.05, 202.90, -2963.20, 0.000, 0.000, 0.000, 18:26:29.787
161, -112.48, 126.96, 202.98, -3044.15, 0.000, 0.000, 0.000, 18:26:29.788
162, -122.30, 117.93, 203.85, -2982.78, 0.000, 0.000, 0.000, 18:26:29.788
163, -98.63, 115.72, 207.34, -2919.92, 0.000, 0.000, 0.000, 18:26:29.802
164, -85.82, 125.75, 193.90, -3013.40, 0.000, 0.000, 0.000, 18:26:29.802
165, -126.61, 125.39, 201.36, -2987.58, 0.000, 0.000, 0.000, 18:26:29.817
166, -127.92, 106.75, 200.91, -2977.83, 0.000, 0.000, 0.000, 18:26:29.817
167, -96.49, 111.06, 194.29, -2949.42, 0.000, 0.000, 0.000, 18:26:29.818
168, -97.09, 120.11, 201.88, -2955.13, 0.000, 0.000, 0.000, 18:26:29.818
169, -115.41, 130.83, 209.64, -3014.92, 0.000, 0.000, 0.000, 18:26:29.832
170, -108.70, 116.73, 201.31, -3043.16, 0.000, 0.000, 0.000, 18:26:29.832
171, -98.64, 105.17, 198.49, -2938.38, 0.000, 0.000, 0.000, 18:26:29.847
172, -94.60, 113.12, 194.63, -2986.69, 0.000, 0.000, 0.000, 18:26:29.847
173, -115.45, 114.03, 190.98, -3092.28, 0.000, 0.000, 0.000, 18:26:29.848
174, -130.79, 109.42, 201.80, -2965.59, 0.000, 0.000, 0.000, 18:26:29.848
175, -94.64, 104.36, 202.83, -2947.94, 0.000, 0.000, 0.000, 18:26:29.862
176, -80.40, 115.72, 195.90, -3024.49, 0.000, 0.000, 0.000, 18:26:29.862
177, -117.28, 123.24, 198.70, -3029.77, 0.000, 0.000, 0.000, 18:26:29.877
178, -124.26, 108.60, 206.47, -2971.19, 0.000, 0.000, 0.000, 18:26:29.877
179, -91.22, 113.65, 207.28, -2920.32, 0.000, 0.000, 0.000, 18:26:29.878
180, -100.44, 114.46, 200.70, -2943.55, 0.000, 0.000, 0.000, 18:26:29.878
181, -123.22, 116.76, 199.79, -3032.35, 0.000, 0.000, 0.000, 18:26:29.892
182, -108.79, 110.80, 198.27, -3069.39, 0.000, 0.000, 0.000, 18:26:29.892
183, -93.68, 108.64, 202.62, -2938.47, 0.000, 0.000, 0.000, 18:26:29.907
184, -98.33, 112.46, 196.22, -2991.16, 0.000, 0.000, 0.000, 18:26:29.907
185, -115.24, 122.00, 189.72, -3088.74, 0.000, 0.000, 0.000, 18:26:29.908
186, -123.62, 110.56, 199.26, -3012.28, 0.000, 0.000, 0.000, 18:26:29.908
187, -80.76, 115.22, 205.72, -2964.35, 0.000, 0.000, 0.000, 18:26:29.922
188, -70.68, 126.25, 191.27, -3043.71, 0.000, 0.000, 0.000, 18:26:29.922
189, -115.08, 116.59, 196.06, -3057.84, 0.000, 0.000, 0.000, 18:26:29.937
190, -114.70, 119.58, 210.04, -2990.51, 0.000, 0.000, 0.000, 18:26:29.937
191, -92.84, 107.98, 197.68, -2960.79, 0.000, 0.000, 0.000, 18:26:29.938
192, -91.28, 117.19, 199.59, -2998.58, 0.000, 0.000, 0.000, 18:26:29.938
193, -109.16, 123.41, 204.40, -3053.60, 0.000, 0.000, 0.000, 18:26:29.952
194, -111.91, 115.25, 195.71, -3036.72, 0.000, 0.000, 0.000, 18:26:29.952
195, -95.85, 111.82, 200.50, -2914.80, 0.000, 0.000, 0.000, 18:26:29.982
196, -93.44, 109.73, 199.89, -2963.52, 0.000, 0.000, 0.000, 18:26:29.982
197, -111.30, 124.71, 202.76, -3034.87, 0.000, 0.000, 0.000, 18:26:29.983
198, -130.34, 113.04, 199.78, -2993.27, 0.000, 0.000, 0.000, 18:26:29.983
199, -103.31, 106.09, 199.84, -2934.06, 0.000, 0.000, 0.000, 18:26:29.983
200, -97.14, 113.91, 196.96, -2976.53, 0.000, 0.000, 0.000, 18:26:29.983
0, -129.73, 113.02, 196.51, -3023.42, 0.000, 0.000, 0.000, 18:26:29.984
1, -122.73, 111.35, 198.81, -3015.31, 0.000, 0.000, 0.000, 18:26:29.997
2, -57.44, 119.65, 189.49, -3058.31, 0.000, 0.000, 0.000, 18:26:29.997
3, -116.47, 106.02, 190.02, -2958.85, 0.000, 0.000, 0.000, 18:26:30.012
4, -123.27, 116.68, 197.43, -3056.61, 0.000, 0.000, 0.000, 18:26:30.012
5, -113.43, 112.06, 206.32, -3030.87, 0.000, 0.000, 0.000, 18:26:30.013
6, -100.63, 109.45, 199.20, -2924.00, 0.000, 0.000, 0.000, 18:26:30.013
7, -98.73, 111.00, 199.59, -2972.44, 0.000, 0.000, 0.000, 18:26:30.027
8, -115.29, 124.61, 193.97, -3073.95, 0.000, 0.000, 0.000, 18:26:30.027
9, -126.35, 111.73, 205.11, -2979.92, 0.000, 0.000, 0.000, 18:26:30.042
10, -100.08, 114.00, 201.28, -2932.80, 0.000, 0.000, 0.000, 18:26:30.042
11, -93.67, 117.95, 195.17, -2981.73, 0.000, 0.000, 0.000, 18:26:30.043
12, -134.78, 114.75, 195.95, -3011.16, 0.000, 0.000, 0.000, 18:26:30.043
13, -124.72, 115.39, 203.49, -2995.46, 0.000, 0.000, 0.000, 18:26:30.057
14, -89.02, 113.15, 194.92, -2957.98, 0.000, 0.000, 0.000, 18:26:30.057
15, -104.90, 112.99, 194.26, -2966.44, 0.000, 0.000, 0.000, 18:26:30.072
16, -127.91, 118.75, 188.33, -3045.97, 0.000, 0.000, 0.000, 18:26:30.072
17, -121.80, 114.61, 197.47, -3015.72, 0.000, 0.000, 0.000, 18:26:30.073
18, -107.18, 111.89, 198.80, -2912.67, 0.000, 0.000, 0.000, 18:26:30.073
19, -95.18, 121.05, 195.59, -2940.59, 0.000, 0.000, 0.000, 18:26:30.087
20, -115.78, 118.75, 185.30, -3084.81, 0.000, 0.000, 0.000, 18:26:30.087
21, -135.61, 110.21, 198.81, -2977.02, 0.000, 0.000, 0.000, 18:26:30.102
22, -101.57, 102.03, 194.35, -2940.85, 0.000, 0.000, 0.000, 18:26:30.102
23, -94.44, 114.95, 188.84, -2975.95, 0.000, 0.000, 0.000, 18:26:30.103
24, -126.74, 120.38, 192.17, -3010.48, 0.000, 0.000, 0.000, 18:26:30.103
25, -127.16, 111.66, 205.45, -2975.38, 0.000, 0.000, 0.000, 18:26:30.117
26, -88.53, 114.05, 201.09, -2960.30, 0.000, 0.000, 0.000, 18:26:30.117
27, -103.27, 109.30, 198.71, -2943.26, 0.000, 0.000, 0.000, 18:26:30.132
28, -130.26, 116.63, 198.21, -3016.83, 0.000, 0.000, 0.000, 18:26:30.132
29, -116.40, 121.14, 207.72, -3004.21, 0.000, 0.000, 0.000, 18:26:30.133
30, -93.92, 122.59, 210.55, -2896.80, 0.000, 0.000, 0.000, 18:26:30.133
31, -92.72, 119.34, 197.08, -2972.71, 0.000, 0.000, 0.000, 18:26:30.148
32, -107.38, 125.82, 193.89, -3080.85, 0.000, 0.000, 0.000, 18:26:30.148
33, -127.15, 113.21, 202.24, -2989.55, 0.000, 0.000, 0.000, 18:26:30.162
34, -101.58, 113.86, 202.94, -2923.06, 0.000, 0.000, 0.000, 18:26:30.162
35, -87.31, 118.49, 193.87, -2977.32, 0.000, 0.000, 0.000, 18:26:30.163
36, -119.79, 126.58, 201.60, -3024.30, 0.000, 0.000, 0.000, 18:26:30.163
37, -118.86, 112.60, 208.89, -2992.22, 0.000, 0.000, 0.000, 18:26:30.177
38, -83.11, 105.12, 197.81, -3005.72, 0.000, 0.000, 0.000, 18:26:30.177
39, -99.04, 115.73, 202.74, -2952.98, 0.000, 0.000, 0.000, 18:26:30.192
40, -124.19, 116.82, 200.93, -3069.76, 0.000, 0.000, 0.000, 18:26:30.192
41, -115.76, 119.16, 201.39, -3034.42, 0.000, 0.000, 0.000, 18:26:30.193
42, -102.91, 105.53, 202.67, -2901.51, 0.000, 0.000, 0.000, 18:26:30.193
43, -92.13, 114.00, 196.54, -2977.33, 0.000, 0.000, 0.000, 18:26:30.207
44, -111.01, 121.49, 191.67, -3061.59, 0.000, 0.000, 0.000, 18:26:30.207
45, -131.80, 106.91, 205.61, -2994.41, 0.000, 0.000, 0.000, 18:26:30.222
46, -99.02, 108.58, 208.50, -2913.47, 0.000, 0.000, 0.000, 18:26:30.222
47, -80.25, 128.21, 206.36, -2967.46, 0.000, 0.000, 0.000, 18:26:30.223
48, -112.92, 123.61, 205.97, -3025.23, 0.000, 0.000, 0.000, 18:26:30.223
49, -118.24, 113.64, 207.20, -2992.40, 0.000, 0.000, 0.000, 18:26:30.238
50, -78.87, 119.88, 206.66, -2958.86, 0.000, 0.000, 0.000, 18:26:30.238
51, -90.54, 116.68, 200.30, -2952.03, 0.000, 0.000, 0.000, 18:26:30.252
52, -116.19, 122.37, 201.54, -3026.75, 0.000, 0.000, 0.000, 18:26:30.252
53, -112.65, 121.53, 210.80, -2987.73, 0.000, 0.000, 0.000, 18:26:30.253
54, -98.37, 110.21, 207.53, -2905.83, 0.000, 0.000, 0.000, 18:26:30.253
55, -90.06, 119.68, 203.01, -2978.00, 0.000, 0.000, 0.000, 18:26:30.267
56, -106.10, 128.96, 190.54, -3072.16, 0.000, 0.000, 0.000, 18:26:30.267
57, -126.55, 108.53, 197.08, -3011.98, 0.000, 0.000, 0.000, 18:26:30.282
58, -101.71, 103.60, 197.29, -2941.74, 0.000, 0.000, 0.000, 18:26:30.282
59, -90.56, 113.24, 194.50, -3002.74, 0.000, 0.000, 0.000, 18:26:30.283
60, -117.66, 120.53, 205.72, -3006.59, 0.000, 0.000, 0.000, 18:26:30.283
61, -125.21, 110.11, 206.14, -2992.48, 0.000, 0.000, 0.000, 18:26:30.312
62, -84.39, 111.89, 196.23, -2980.34, 0.000, 0.000, 0.000, 18:26:30.312
63, -104.39, 113.32, 196.68, -2958.56, 0.000, 0.000, 0.000, 18:26:30.313
64, -116.05, 126.01, 203.12, -3054.03, 0.000, 0.000, 0.000, 18:26:30.313
65, -123.47, 113.63, 200.25, -2999.57, 0.000, 0.000, 0.000, 18:26:30.314
66, -96.73, 111.22, 204.79, -2925.66, 0.000, 0.000, 0.000, 18:26:30.314
67, -91.98, 120.90, 198.21, -2972.98, 0.000, 0.000, 0.000, 18:26:30.327
68, -96.79, 130.84, 190.44, -3098.10, 0.000, 0.000, 0.000, 18:26:30.327
69, -131.99, 112.05, 209.56, -2978.73, 0.000, 0.000, 0.000, 18:26:30.342
70, -98.65, 109.04, 200.67, -2924.10, 0.000, 0.000, 0.000, 18:26:30.342
71, -103.19, 112.56, 192.28, -2967.38, 0.000, 0.000, 0.000, 18:26:30.343
72, -134.43, 111.59, 193.76, -3024.99, 0.000, 0.000, 0.000, 18:26:30.343
73, -130.16, 108.98, 199.97, -2982.75, 0.000, 0.000, 0.000, 18:26:30.357
74, -92.17, 110.47, 187.83, -2972.30, 0.000, 0.000, 0.000, 18:26:30.357
75, -104.12, 112.60, 190.18, -2948.03, 0.000, 0.000, 0.000, 18:26:30.372
76, -122.11, 117.63, 196.49, -3013.38, 0.000, 0.000, 0.000, 18:26:30.372
77, -119.03, 114.05, 204.32, -2981.49, 0.000, 0.000, 0.000, 18:26:30.373
78, -103.94, 111.35, 209.17, -2898.85, 0.000, 0.000, 0.000, 18:26:30.373
79, -104.05, 104.57, 194.84, -2951.27, 0.000, 0.000, 0.000, 18:26:30.387
80, -110.93, 124.83, 199.38, -3061.37, 0.000, 0.000, 0.000, 18:26:30.387
81, -131.44, 106.32, 205.21, -2973.71, 0.000, 0.000, 0.000, 18:26:30.402
82, -110.13, 98.07, 193.49, -2943.35, 0.000, 0.000, 0.000, 18:26:30.402
83, -89.12, 117.43, 195.31, -2980.87, 0.000, 0.000, 0.000, 18:26:30.403
84, -127.08, 115.01, 191.53, -3039.33, 0.000, 0.000, 0.000, 18:26:30.403
85, -129.22, 117.64, 198.82, -3019.92, 0.000, 0.000, 0.000, 18:26:30.417
86, -94.74, 112.29, 186.85, -2993.12, 0.000, 0.000, 0.000, 18:26:30.417
87, -104.05, 110.44, 184.94, -2975.83, 0.000, 0.000, 0.000, 18:26:30.432
88, -129.28, 110.78, 183.82, -3055.98, 0.000, 0.000, 0.000, 18:26:30.432
89, -126.80, 118.56, 193.23, -3028.31, 0.000, 0.000, 0.000, 18:26:30.433
90, -111.03, 101.67, 186.92, -2940.64, 0.000, 0.000, 0.000, 18:26:30.433
91, -98.74, 118.82, 183.64, -2992.18, 0.000, 0.000, 0.000, 18:26:30.447
92, -117.51, 121.01, 183.72, -3087.71, 0.000, 0.000, 0.000, 18:26:30.447
93, -136.35, 107.06, 192.71, -3010.75, 0.000, 0.000, 0.000, 18:26:30.462
94, -107.05, 104.62, 193.97, -2946.00, 0.000, 0.000, 0.000, 18:26:30.463
95, -93.30, 111.19, 189.13, -2994.74, 0.000, 0.000, 0.000, 18:26:30.463
96, -123.05, 115.80, 190.26, -3052.60, 0.000, 0.000, 0.000, 18:26:30.463
97, -122.03, 105.05, 195.50, -3026.85, 0.000, 0.000, 0.000, 18:26:30.477
98, -88.92, 103.07, 189.71, -2994.73, 0.000, 0.000, 0.000, 18:26:30.477
99, -99.32, 105.11, 196.46, -2948.52, 0.000, 0.000, 0.000, 18:26:30.492
100, -117.23, 113.06, 198.60, -3026.75, 0.000, 0.000, 0.000, 18:26:30.492
101, -112.10, 116.79, 213.06, -2999.52, 0.000, 0.000, 0.000, 18:26:30.493
102, -91.22, 113.11, 218.63, -2894.64, 0.000, 0.000, 0.000, 18:26:30.493
103, -92.37, 120.20, 206.42, -2944.02, 0.000, 0.000, 0.000, 18:26:30.508
104, -105.83, 127.24, 199.23, -3079.30, 0.000, 0.000, 0.000, 18:26:30.508
105, -114.07, 117.77, 210.74, -2975.72, 0.000, 0.000, 0.000, 18:26:30.522
106, -93.40, 107.65, 205.86, -2922.89, 0.000, 0.000, 0.000, 18:26:30.522
107, -78.29, 126.03, 207.94, -2960.73, 0.000, 0.000, 0.000, 18:26:30.523
108, -123.08, 122.11, 204.51, -2995.70, 0.000, 0.000, 0.000, 18:26:30.523
109, -128.04, 113.01, 210.90, -2974.56, 0.000, 0.000, 0.000, 18:26:30.537
110, -91.25, 109.42, 202.37, -2961.26, 0.000, 0.000, 0.000, 18:26:30.537
111, -95.12, 120.08, 211.92, -2932.23, 0.000, 0.000, 0.000, 18:26:30.552
112, -117.61, 122.87, 207.11, -3013.94, 0.000, 0.000, 0.000, 18:26:30.552
113, -117.58, 112.15, 204.51, -2995.87, 0.000, 0.000, 0.000, 18:26:30.553
114, -97.69, 106.55, 209.95, -2929.76, 0.000, 0.000, 0.000, 18:26:30.553
115, -91.49, 115.32, 202.80, -2961.98, 0.000, 0.000, 0.000, 18:26:30.568
116, -107.34, 123.64, 196.09, -3070.71, 0.000, 0.000, 0.000, 18:26:30.568
117, -120.57, 114.72, 215.94, -2978.05, 0.000, 0.000, 0.000, 18:26:30.582
118, -103.59, 100.88, 199.91, -2918.66, 0.000, 0.000, 0.000, 18:26:30.582
119, -86.75, 115.52, 201.69, -2987.68, 0.000, 0.000, 0.000, 18:26:30.583
120, -121.66, 123.95, 204.60, -3015.24, 0.000, 0.000, 0.000, 18:26:30.583
121, -119.01, 117.76, 203.68, -2999.55, 0.000, 0.000, 0.000, 18:26:30.597
122, -87.74, 114.10, 194.56, -2982.88, 0.000, 0.000, 0.000, 18:26:30.597
123, -94.59, 117.17, 202.13, -2946.83, 0.000, 0.000, 0.000, 18:26:30.627
124, -119.65, 120.25, 196.97, -3029.19, 0.000, 0.000, 0.000, 18:26:30.627
125, -120.28, 110.09, 197.10, -3022.34, 0.000, 0.000, 0.000, 18:26:30.627
126, -97.98, 104.15, 198.10, -2938.08, 0.000, 0.000, 0.000, 18:26:30.627
127, -96.47, 111.98, 195.98, -2978.84, 0.000, 0.000, 0.000, 18:26:30.628
128, -126.32, 111.83, 186.97, -3066.22, 0.000, 0.000, 0.000, 18:26:30.628
129, -122.59, 115.51, 201.51, -3006.22, 0.000, 0.000, 0.000, 18:26:30.629
130, -98.64, 108.11, 199.73, -2920.07, 0.000, 0.000, 0.000, 18:26:30.629
131, -65.84, 120.63, 178.04, -3111.19, 0.000, 0.000, 0.000, 18:26:30.642
132, -132.35, 124.90, 196.36, -3020.55, 0.000, 0.000, 0.000, 18:26:30.642
133, -128.37, 123.25, 208.93, -2975.34, 0.000, 0.000, 0.000, 18:26:30.657
134, -97.65, 118.07, 200.77, -2946.60, 0.000, 0.000, 0.000, 18:26:30.658
135, -104.78, 112.74, 192.57, -2914.47, 0.000, 0.000, 0.000, 18:26:30.672
136, -127.55, 115.94, 197.88, -3007.96, 0.000, 0.000, 0.000, 18:26:30.672
137, -127.58, 108.27, 199.59, -2984.81, 0.000, 0.000, 0.000, 18:26:30.673
138, -111.48, 104.05, 192.92, -2903.56, 0.000, 0.000, 0.000, 18:26:30.673
139, -100.88, 108.90, 189.72, -2964.03, 0.000, 0.000, 0.000, 18:26:30.687
140, -116.71, 113.26, 183.34, -3078.00, 0.000, 0.000, 0.000, 18:26:30.688
141, -133.14, 107.38, 197.24, -2986.42, 0.000, 0.000, 0.000, 18:26:30.702
142, -103.72, 107.22, 195.26, -2930.06, 0.000, 0.000, 0.000, 18:26:30.702
143, -88.63, 116.58, 194.61, -2961.69, 0.000, 0.000, 0.000, 18:26:30.703
144, -124.30, 116.95, 198.34, -3014.84, 0.000, 0.000, 0.000, 18:26:30.703
145, -129.88, 109.93, 198.75, -3010.27, 0.000, 0.000, 0.000, 18:26:30.717
146, -95.72, 106.27, 196.73, -2959.14, 0.000, 0.000, 0.000, 18:26:30.717
147, -100.18, 113.64, 202.73, -2949.81, 0.000, 0.000, 0.000, 18:26:30.735
148, -121.95, 114.85, 199.50, -3051.15, 0.000, 0.000, 0.000, 18:26:30.736
149, -123.93, 112.96, 199.27, -3031.33, 0.000, 0.000, 0.000, 18:26:30.736
150, -107.86, 106.39, 201.60, -2903.21, 0.000, 0.000, 0.000, 18:26:30.736
151, -100.25, 114.22, 198.76, -2965.53, 0.000, 0.000, 0.000, 18:26:30.747
152, -112.43, 121.80, 193.02, -3081.91, 0.000, 0.000, 0.000, 18:26:30.747
153, -134.26, 116.41, 201.84, -2990.16, 0.000, 0.000, 0.000, 18:26:30.762
154, -106.12, 107.46, 198.76, -2912.65, 0.000, 0.000, 0.000, 18:26:30.762
155, -92.04, 121.65, 202.25, -2939.14, 0.000, 0.000, 0.000, 18:26:30.763
156, -124.19, 122.09, 203.47, -2998.80, 0.000, 0.000, 0.000, 18:26:30.763
157, -123.15, 114.59, 207.45, -3017.99, 0.000, 0.000, 0.000, 18:26:30.777
158, -89.49, 112.80, 206.89, -2956.69, 0.000, 0.000, 0.000, 18:26:30.777
159, -90.23, 115.74, 205.35, -2951.24, 0.000, 0.000, 0.000, 18:26:30.792
160, -113.66, 121.68, 200.22, -3042.77, 0.000, 0.000, 0.000, 18:26:30.792
161, -123.77, 107.60, 195.08, -3024.77, 0.000, 0.000, 0.000, 18:26:30.793
162, -102.06, 106.57, 200.42, -2920.93, 0.000, 0.000, 0.000, 18:26:30.793
163, -102.93, 107.79, 197.61, -2935.89, 0.000, 0.000, 0.000, 18:26:30.807
164, -117.33, 118.61, 194.62, -3048.23, 0.000, 0.000, 0.000, 18:26:30.807
165, -130.50, 114.12, 204.33, -2986.31, 0.000, 0.000, 0.000, 18:26:30.822
166, -100.75, 105.85, 201.37, -2929.33, 0.000, 0.000, 0.000, 18:26:30.822
167, -91.78, 114.15, 187.56, -2982.05, 0.000, 0.000, 0.000, 18:26:30.823
168, -114.32, 117.47, 200.79, -3021.26, 0.000, 0.000, 0.000, 18:26:30.823
169, -121.22, 107.69, 202.24, -3013.45, 0.000, 0.000, 0.000, 18:26:30.837
170, -74.51, 119.27, 204.36, -3006.38, 0.000, 0.000, 0.000, 18:26:30.837
171, -92.00, 107.88, 194.96, -2975.46, 0.000, 0.000, 0.000, 18:26:30.852
172, -114.45, 123.45, 205.74, -3044.33, 0.000, 0.000, 0.000, 18:26:30.852
173, -114.92, 118.78, 205.98, -3047.03, 0.000, 0.000, 0.000, 18:26:30.853
174, -95.58, 106.60, 201.68, -2940.01, 0.000, 0.000, 0.000, 18:26:30.853
175, -87.58, 113.96, 195.46, -2971.88, 0.000, 0.000, 0.000, 18:26:30.867
176, -100.52, 127.17, 199.81, -3079.54, 0.000, 0.000, 0.000, 18:26:30.867
177, -132.47, 109.85, 191.80, -3018.51, 0.000, 0.000, 0.000, 18:26:30.882
178, -96.89, 108.57, 201.74, -2950.20, 0.000, 0.000, 0.000, 18:26:30.882
179, -78.01, 121.23, 197.86, -2994.93, 0.000, 0.000, 0.000, 18:26:30.883
180, -117.23, 122.50, 201.41, -3044.22, 0.000, 0.000, 0.000, 18:26:30.883
181, -126.07, 113.87, 195.99, -3034.49, 0.000, 0.000, 0.000, 18:26:30.897
182, -89.97, 113.25, 196.60, -2974.66, 0.000, 0.000, 0.000, 18:26:30.897
183, -92.63, 115.51, 197.39, -2948.34, 0.000, 0.000, 0.000, 18:26:30.912
184, -115.78, 123.17, 199.28, -3028.80, 0.000, 0.000, 0.000, 18:26:30.912
185, -113.18, 121.07, 209.17, -3005.81, 0.000, 0.000, 0.000, 18:26:30.913
186, -98.51, 102.90, 204.25, -2935.38, 0.000, 0.000, 0.000, 18:26:30.913
187, -92.05, 112.80, 196.00, -2990.24, 0.000, 0.000, 0.000, 18:26:30.942
188, -107.72, 121.86, 184.10, -3108.08, 0.000, 0.000, 0.000, 18:26:30.942
189, -132.34, 108.32, 193.56, -3014.19, 0.000, 0.000, 0.000, 18:26:30.943
190, -105.30, 97.48, 191.18, -2949.07, 0.000, 0.000, 0.000, 18:26:30.943
191, -101.26, 102.11, 185.58, -2968.37, 0.000, 0.000, 0.000, 18:26:30.943
192, -118.30, 122.49, 200.75, -3027.96, 0.000, 0.000, 0.000, 18:26:30.943
193, -125.66, 106.50, 199.96, -3008.22, 0.000, 0.000, 0.000, 18:26:30.957
194, -75.15, 114.02, 188.36, -3030.72, 0.000, 0.000, 0.000, 18:26:30.957
195, -95.80, 112.28, 197.60, -2962.30, 0.000, 0.000, 0.000, 18:26:30.972
196, -115.99, 121.92, 196.84, -3045.29, 0.000, 0.000, 0.000, 18:26:30.972
197, -119.18, 111.30, 199.76, -3035.23, 0.000, 0.000, 0.000, 18:26:30.973
198, -110.41, 102.68, 199.52, -2932.07, 0.000, 0.000, 0.000, 18:26:30.973
199, -100.74, 112.37, 193.26, -2970.17, 0.000, 0.000, 0.000, 18:26:30.987
200, -113.08, 117.63, 186.03, -3093.60, 0.000, 0.000, 0.000, 18:26:30.987
0, -134.69, 114.05, 199.81, -2973.28, 0.000, 0.000, 0.000, 18:26:30.988
1, -114.95, 95.27, 199.69, -2902.80, 0.000, 0.000, 0.000, 18:26:31.002
2, -81.92, 109.38, 189.31, -3023.21, 0.000, 0.000, 0.000, 18:26:31.002
3, -119.48, 119.62, 201.29, -3026.13, 0.000, 0.000, 0.000, 18:26:31.017
4, -126.86, 115.04, 203.20, -3017.27, 0.000, 0.000, 0.000, 18:26:31.017
5, -96.26, 107.13, 193.38, -2965.78, 0.000, 0.000, 0.000, 18:26:31.018
6, -101.35, 115.76, 192.27, -2936.17, 0.000, 0.000, 0.000, 18:26:31.018
7, -126.70, 114.54, 195.20, -3029.32, 0.000, 0.000, 0.000, 18:26:31.032
8, -116.48, 122.02, 196.80, -3041.18, 0.000, 0.000, 0.000, 18:26:31.033
9, -101.51, 114.44, 202.25, -2923.79, 0.000, 0.000, 0.000, 18:26:31.047
10, -93.68, 119.84, 199.12, -2947.49, 0.000, 0.000, 0.000, 18:26:31.047
11, -115.17, 125.01, 197.51, -3023.95, 0.000, 0.000, 0.000, 18:26:31.048
12, -124.91, 118.23, 206.35, -3004.67, 0.000, 0.000, 0.000, 18:26:31.048
13, -90.38, 116.25, 212.77, -2915.81, 0.000, 0.000, 0.000, 18:26:31.062
14, -85.25, 116.91, 193.35, -3002.60, 0.000, 0.000, 0.000, 18:26:31.062
15, -118.58, 125.32, 212.89, -2996.74, 0.000, 0.000, 0.000, 18:26:31.077
16, -119.83, 118.40, 212.53, -2988.71, 0.000, 0.000, 0.000, 18:26:31.077
17, -92.07, 115.97, 207.41, -2930.04, 0.000, 0.000, 0.000, 18:26:31.078
18, -94.16, 115.84, 202.86, -2943.30, 0.000, 0.000, 0.000, 18:26:31.078
19, -116.71, 121.25, 196.56, -3038.74, 0.000, 0.000, 0.000, 18:26:31.092
20, -105.88, 121.90, 205.71, -3034.65, 0.000, 0.000, 0.000, 18:26:31.092
21, -101.84, 109.11, 206.93, -2918.31, 0.000, 0.000, 0.000, 18:26:31.107
22, -91.55, 113.54, 200.88, -2970.77, 0.000, 0.000, 0.000, 18:26:31.107
23, -117.08, 115.91, 196.03, -3031.11, 0.000, 0.000, 0.000, 18:26:31.108
24, -127.84, 114.28, 200.41, -2999.68, 0.000, 0.000, 0.000, 18:26:31.108
25, -91.14, 115.54, 205.30, -2953.20, 0.000, 0.000, 0.000, 18:26:31.122
26, -82.21, 125.29, 195.85, -3000.05, 0.000, 0.000, 0.000, 18:26:31.123
27, -127.07, 116.03, 196.10, -3021.78, 0.000, 0.000, 0.000, 18:26:31.137
28, -122.01, 116.91, 208.93, -2997.63, 0.000, 0.000, 0.000, 18:26:31.137
29, -105.91, 107.66, 201.51, -2925.08, 0.000, 0.000, 0.000, 18:26:31.138
30, -98.10, 109.04, 201.94, -2949.57, 0.000, 0.000, 0.000, 18:26:31.138
31, -109.35, 122.03, 202.78, -3037.05, 0.000, 0.000, 0.000, 18:26:31.152
32, -104.89, 121.45, 205.61, -3037.27, 0.000, 0.000, 0.000, 18:26:31.152
33, -102.88, 107.31, 204.56, -2917.48, 0.000, 0.000, 0.000, 18:26:31.167
34, -83.79, 119.47, 204.42, -2964.38, 0.000, 0.000, 0.000, 18:26:31.167
35, -104.13, 124.75, 201.67, -3045.47, 0.000, 0.000, 0.000, 18:26:31.168
36, -124.35, 109.48, 205.83, -2997.66, 0.000, 0.000, 0.000, 18:26:31.168
37, -92.04, 110.79, 203.64, -2954.07, 0.000, 0.000, 0.000, 18:26:31.182
38, -78.78, 120.64, 194.32, -2998.49, 0.000, 0.000, 0.000, 18:26:31.182
39, -121.24, 121.25, 202.10, -3010.69, 0.000, 0.000, 0.000, 18:26:31.197
40, -121.14, 109.63, 200.08, -3030.33, 0.000, 0.000, 0.000, 18:26:31.197
41, -92.10, 110.56, 202.67, -2942.07, 0.000, 0.000, 0.000, 18:26:31.198
42, -87.21, 119.44, 204.49, -2938.80, 0.000, 0.000, 0.000, 18:26:31.198
43, -107.15, 118.40, 204.58, -3054.40, 0.000, 0.000, 0.000, 18:26:31.212
44, -117.49, 113.74, 199.11, -3083.70, 0.000, 0.000, 0.000, 18:26:31.212
45, -100.76, 106.91, 204.02, -2924.13, 0.000, 0.000, 0.000, 18:26:31.227
46, -90.46, 116.05, 201.86, -2958.39, 0.000, 0.000, 0.000, 18:26:31.227
47, -105.98, 126.40, 202.78, -3049.30, 0.000, 0.000, 0.000, 18:26:31.228
48, -119.88, 117.60, 210.71, -2997.79, 0.000, 0.000, 0.000, 18:26:31.228
49, -90.16, 114.01, 210.66, -2955.57, 0.000, 0.000, 0.000, 18:26:31.242
50, -71.10, 130.37, 202.36, -2993.26, 0.000, 0.000, 0.000, 18:26:31.242
51, -110.05, 127.42, 201.71, -3037.45, 0.000, 0.000, 0.000, 18:26:31.272
52, -113.22, 118.49, 205.36, -3041.43, 0.000, 0.000, 0.000, 18:26:31.272
53, -89.48, 122.38, 201.86, -2966.93, 0.000, 0.000, 0.000, 18:26:31.273
54, -92.48, 117.46, 205.10, -2954.67, 0.000, 0.000, 0.000, 18:26:31.273
55, -116.89, 120.29, 201.15, -3048.92, 0.000, 0.000, 0.000, 18:26:31.273
56, -117.87, 121.23, 207.23, -3004.01, 0.000, 0.000, 0.000, 18:26:31.273
57, -102.83, 116.67, 203.20, -2917.31, 0.000, 0.000, 0.000, 18:26:31.274
58, -82.95, 122.93, 199.60, -2982.49, 0.000, 0.000, 0.000, 18:26:31.274
59, -72.35, 141.83, 189.76, -3180.19, 0.000, 0.000, 0.000, 18:26:31.287
60, -136.58, 117.50, 201.29, -3007.25, 0.000, 0.000, 0.000, 18:26:31.287
61, -96.93, 114.35, 199.55, -2931.22, 0.000, 0.000, 0.000, 18:26:31.302
62, -92.04, 116.87, 188.77, -2977.94, 0.000, 0.000, 0.000, 18:26:31.302
63, -121.09, 121.37, 197.09, -3036.20, 0.000, 0.000, 0.000, 18:26:31.317
64, -123.79, 114.25, 203.73, -3030.72, 0.000, 0.000, 0.000, 18:26:31.317
65, -92.78, 110.59, 198.30, -2963.28, 0.000, 0.000, 0.000, 18:26:31.318
66, -101.15, 105.30, 192.19, -2962.90, 0.000, 0.000, 0.000, 18:26:31.318
67, -126.29, 108.60, 189.86, -3058.82, 0.000, 0.000, 0.000, 18:26:31.332
68, -121.79, 119.06, 194.42, -3051.13, 0.000, 0.000, 0.000, 18:26:31.335
69, -110.84, 109.87, 195.79, -2934.10, 0.000, 0.000, 0.000, 18:26:31.347
70, -91.95, 123.12, 202.08, -2934.29, 0.000, 0.000, 0.000, 18:26:31.347
71, -117.01, 128.60, 195.94, -3032.51, 0.000, 0.000, 0.000, 18:26:31.348
72, -128.95, 116.70, 206.87, -2981.21, 0.000, 0.000, 0.000, 18:26:31.348
73, -99.23, 112.53, 214.08, -2924.88, 0.000, 0.000, 0.000, 18:26:31.362
74, -77.17, 116.21, 205.26, -2992.15, 0.000, 0.000, 0.000, 18:26:31.363
75, -122.85, 118.34, 202.48, -2995.91, 0.000, 0.000, 0.000, 18:26:31.377
76, -124.30, 111.97, 205.60, -3006.88, 0.000, 0.000, 0.000, 18:26:31.377
77, -89.94, 115.89, 209.94, -2945.25, 0.000, 0.000, 0.000, 18:26:31.378
78, -93.02, 114.15, 207.15, -2910.06, 0.000, 0.000, 0.000, 18:26:31.378
79, -115.39, 115.24, 205.27, -3024.38, 0.000, 0.000, 0.000, 18:26:31.392
80, -119.93, 108.16, 192.49, -3034.36, 0.000, 0.000, 0.000, 18:26:31.392
81, -106.28, 107.90, 209.24, -2887.54, 0.000, 0.000, 0.000, 18:26:31.407
82, -99.02, 113.81, 203.53, -2949.20, 0.000, 0.000, 0.000, 18:26:31.407
83, -113.06, 115.82, 193.90, -3040.51, 0.000, 0.000, 0.000, 18:26:31.408
84, -138.56, 110.44, 200.25, -2982.76, 0.000, 0.000, 0.000, 18:26:31.408
85, -106.53, 106.95, 204.71, -2936.18, 0.000, 0.000, 0.000, 18:26:31.422
86, -83.76, 124.61, 191.23, -2999.62, 0.000, 0.000, 0.000, 18:26:31.422
87, -125.92, 124.78, 195.11, -2989.39, 0.000, 0.000, 0.000, 18:26:31.437
88, -129.98, 110.27, 204.05, -3002.91, 0.000, 0.000, 0.000, 18:26:31.437
89, -95.49, 117.98, 205.24, -2929.77, 0.000, 0.000, 0.000, 18:26:31.438
90, -98.10, 116.90, 197.54, -2937.94, 0.000, 0.000, 0.000, 18:26:31.438
91, -124.33, 117.71, 195.74, -3035.43, 0.000, 0.000, 0.000, 18:26:31.452
92, -116.01, 117.91, 193.56, -3072.77, 0.000, 0.000, 0.000, 18:26:31.453
93, -111.75, 108.14, 197.43, -2911.94, 0.000, 0.000, 0.000, 18:26:31.467
94, -95.20, 114.78, 197.91, -2975.14, 0.000, 0.000, 0.000, 18:26:31.467
95, -118.79, 117.65, 183.54, -3064.42, 0.000, 0.000, 0.000, 18:26:31.468
96, -140.82, 110.30, 191.76, -3004.27, 0.000, 0.000, 0.000, 18:26:31.468
97, -112.58, 106.42, 193.40, -2947.51, 0.000, 0.000, 0.000, 18:26:31.482
98, -94.72, 112.76, 179.29, -3034.05, 0.000, 0.000, 0.000, 18:26:31.482
99, -116.94, 125.68, 200.98, -3008.48, 0.000, 0.000, 0.000, 18:26:31.497
100, -123.60, 117.53, 207.14, -3007.38, 0.000, 0.000, 0.000, 18:26:31.497
101, -95.11, 113.39, 202.66, -2956.98, 0.000, 0.000, 0.000, 18:26:31.498
102, -92.21, 115.06, 197.02, -2956.65, 0.000, 0.000, 0.000, 18:26:31.498
103, -120.72, 119.75, 194.28, -3048.36, 0.000, 0.000, 0.000, 18:26:31.512
104, -112.49, 121.88, 199.00, -3063.59, 0.000, 0.000, 0.000, 18:26:31.512
105, -107.48, 105.84, 202.18, -2916.84, 0.000, 0.000, 0.000, 18:26:31.527
106, -92.87, 117.88, 199.71, -2973.13, 0.000, 0.000, 0.000, 18:26:31.527
107, -111.62, 120.33, 191.92, -3058.65, 0.000, 0.000, 0.000, 18:26:31.528
108, -130.54, 108.79, 198.17, -3031.31, 0.000, 0.000, 0.000, 18:26:31.528
109, -102.68, 103.67, 195.82, -2975.44, 0.000, 0.000, 0.000, 18:26:31.542
110, -86.07, 110.52, 187.94, -3008.13, 0.000, 0.000, 0.000, 18:26:31.542
111, -113.77, 120.98, 203.27, -3032.84, 0.000, 0.000, 0.000, 18:26:31.557
112, -128.39, 115.90, 202.23, -2998.91, 0.000, 0.000, 0.000, 18:26:31.557
113, -101.76, 106.87, 198.69, -2951.25, 0.000, 0.000, 0.000, 18:26:31.558
114, -96.98, 110.64, 194.23, -2937.17, 0.000, 0.000, 0.000, 18:26:31.558
115, -115.96, 121.30, 199.34, -3022.99, 0.000, 0.000, 0.000, 18:26:31.587
116, -118.82, 116.79, 200.04, -3063.12, 0.000, 0.000, 0.000, 18:26:31.587
117, -111.39, 107.89, 199.47, -2918.50, 0.000, 0.000, 0.000, 18:26:31.588
118, -96.69, 113.98, 199.83, -2938.17, 0.000, 0.000, 0.000, 18:26:31.588
119, -119.70, 117.66, 194.23, -3041.45, 0.000, 0.000, 0.000, 18:26:31.589
120, -125.30, 115.57, 203.79, -3020.43, 0.000, 0.000, 0.000, 18:26:31.589
121, -98.82, 113.84, 207.46, -2932.42, 0.000, 0.000, 0.000, 18:26:31.602
122, -72.19, 128.41, 191.88, -3027.22, 0.000, 0.000, 0.000, 18:26:31.602
123, -126.16, 113.06, 197.51, -3021.44, 0.000, 0.000, 0.000, 18:26:31.617
124, -128.22, 113.62, 206.54, -3022.03, 0.000, 0.000, 0.000, 18:26:31.617
125, -107.44, 104.01, 192.66, -2969.36, 0.000, 0.000, 0.000, 18:26:31.618
126, -92.72, 119.92, 208.16, -2956.60, 0.000, 0.000, 0.000, 18:26:31.618
127, -114.76, 119.36, 197.92, -3032.70, 0.000, 0.000, 0.000, 18:26:31.632
128, -113.01, 115.83, 191.97, -3079.47, 0.000, 0.000, 0.000, 18:26:31.632
129, -97.67, 108.47, 202.86, -2950.44, 0.000, 0.000, 0.000, 18:26:31.647
130, -76.78, 119.18, 204.13, -2949.73, 0.000, 0.000, 0.000, 18:26:31.647
131, -103.52, 119.88, 197.54, -3054.18, 0.000, 0.000, 0.000, 18:26:31.648
132, -125.35, 114.32, 204.54, -3010.82, 0.000, 0.000, 0.000, 18:26:31.648
133, -98.66, 111.14, 208.74, -2943.45, 0.000, 0.000, 0.000, 18:26:31.662
134, -74.76, 115.95, 193.55, -3012.85, 0.000, 0.000, 0.000, 18:26:31.662
135, -109.12, 122.26, 202.94, -3016.01, 0.000, 0.000, 0.000, 18:26:31.677
136, -114.06, 118.47, 209.38, -3029.10, 0.000, 0.000, 0.000, 18:26:31.677
137, -90.32, 110.56, 201.77, -2970.72, 0.000, 0.000, 0.000, 18:26:31.678
138, -93.93, 110.07, 204.85, -2931.46, 0.000, 0.000, 0.000, 18:26:31.678
139, -112.21, 119.67, 205.63, -3030.50, 0.000, 0.000, 0.000, 18:26:31.692
140, -115.43, 118.14, 199.29, -3046.86, 0.000, 0.000, 0.000, 18:26:31.692
141, -104.90, 105.52, 205.51, -2927.19, 0.000, 0.000, 0.000, 18:26:31.707
142, -97.57, 115.78, 201.23, -2928.73, 0.000, 0.000, 0.000, 18:26:31.707
143, -124.07, 119.56, 194.82, -3017.64, 0.000, 0.000, 0.000, 18:26:31.708
144, -136.44, 112.74, 199.64, -3008.01, 0.000, 0.000, 0.000, 18:26:31.708
145, -111.99, 106.45, 199.13, -2936.49, 0.000, 0.000, 0.000, 18:26:31.722
146, -92.84, 112.78, 189.82, -2977.66, 0.000, 0.000, 0.000, 18:26:31.723
147, -129.43, 122.04, 198.26, -2992.46, 0.000, 0.000, 0.000, 18:26:31.737
148, -134.42, 113.03, 201.14, -2994.14, 0.000, 0.000, 0.000, 18:26:31.737
149, -108.49, 112.35, 196.44, -2936.06, 0.000, 0.000, 0.000, 18:26:31.738
150, -101.44, 111.79, 195.58, -2941.31, 0.000, 0.000, 0.000, 18:26:31.738
151, -116.51, 127.61, 200.60, -3016.06, 0.000, 0.000, 0.000, 18:26:31.752
152, -112.67, 130.23, 205.14, -3029.29, 0.000, 0.000, 0.000, 18:26:31.752
153, -114.89, 105.32, 198.34, -2907.31, 0.000, 0.000, 0.000, 18:26:31.767
154, -98.04, 119.43, 195.31, -2933.40, 0.000, 0.000, 0.000, 18:26:31.767
155, -114.75, 119.43, 194.63, -3023.98, 0.000, 0.000, 0.000, 18:26:31.768
156, -129.59, 116.34, 202.61, -3030.25, 0.000, 0.000, 0.000, 18:26:31.768
157, -98.28, 116.33, 196.66, -2955.57, 0.000, 0.000, 0.000, 18:26:31.782
158, -70.48, 125.50, 191.09, -3009.60, 0.000, 0.000, 0.000, 18:26:31.782
159, -110.90, 123.15, 198.50, -3024.79, 0.000, 0.000, 0.000, 18:26:31.797
160, -124.94, 117.63, 202.22, -3010.95, 0.000, 0.000, 0.000, 18:26:31.797
161, -102.04, 107.44, 194.63, -2960.41, 0.000, 0.000, 0.000, 18:26:31.798
162, -91.88, 116.23, 198.44, -2946.05, 0.000, 0.000, 0.000, 18:26:31.798
163, -106.85, 125.92, 201.82, -3049.77, 0.000, 0.000, 0.000, 18:26:31.812
164, -102.63, 119.40, 200.50, -3088.94, 0.000, 0.000, 0.000, 18:26:31.812
165, -97.11, 105.79, 201.22, -2951.36, 0.000, 0.000, 0.000, 18:26:31.827
166, -81.18, 118.25, 204.89, -2957.16, 0.000, 0.000, 0.000, 18:26:31.827
167, -104.39, 124.65, 203.40, -3029.10, 0.000, 0.000, 0.000, 18:26:31.828
168, -121.66, 114.15, 207.60, -3018.07, 0.000, 0.000, 0.000, 18:26:31.828
169, -89.42, 111.50, 210.25, -2955.39, 0.000, 0.000, 0.000, 18:26:31.842
170, -71.67, 116.55, 196.74, -3007.96, 0.000, 0.000, 0.000, 18:26:31.842
171, -108.87, 124.14, 208.12, -3019.19, 0.000, 0.000, 0.000, 18:26:31.857
172, -116.81, 116.03, 209.33, -3014.83, 0.000, 0.000, 0.000, 18:26:31.857
173, -96.02, 112.86, 202.80, -2962.46, 0.000, 0.000, 0.000, 18:26:31.858
174, -89.87, 115.29, 205.88, -2942.46, 0.000, 0.000, 0.000, 18:26:31.858
175, -104.73, 125.42, 213.55, -3027.00, 0.000, 0.000, 0.000, 18:26:31.872
176, -103.12, 122.73, 206.31, -3067.49, 0.000, 0.000, 0.000, 18:26:31.872
177, -90.90, 114.46, 215.95, -2946.57, 0.000, 0.000, 0.000, 18:26:31.902
178, -78.87, 122.15, 211.46, -2942.71, 0.000, 0.000, 0.000, 18:26:31.902
179, -100.37, 121.24, 203.51, -3059.57, 0.000, 0.000, 0.000, 18:26:31.903
180, -121.10, 119.55, 207.66, -2989.17, 0.000, 0.000, 0.000, 18:26:31.903
181, -94.01, 109.32, 214.32, -2938.27, 0.000, 0.000, 0.000, 18:26:31.903
182, -80.94, 122.86, 209.50, -2931.96, 0.000, 0.000, 0.000, 18:26:31.903
183, -112.26, 126.10, 205.31, -2994.18, 0.000, 0.000, 0.000, 18:26:31.904
184, -120.86, 118.22, 209.98, -3023.15, 0.000, 0.000, 0.000, 18:26:31.904
185, -55.93, 123.68, 196.64, -3072.48, 0.000, 0.000, 0.000, 18:26:31.917
186, -103.56, 113.04, 201.42, -2929.63, 0.000, 0.000, 0.000, 18:26:31.917
187, -109.11, 125.29, 208.69, -3014.61, 0.000, 0.000, 0.000, 18:26:31.932
188, -124.02, 121.09, 204.75, -3009.21, 0.000, 0.000, 0.000, 18:26:31.932
189, -106.76, 107.08, 205.47, -2936.81, 0.000, 0.000, 0.000, 18:26:31.947
190, -95.37, 113.51, 192.83, -2961.68, 0.000, 0.000, 0.000, 18:26:31.947
191, -115.57, 123.72, 192.79, -3039.75, 0.000, 0.000, 0.000, 18:26:31.948
192, -129.78, 120.46, 203.73, -2997.24, 0.000, 0.000, 0.000, 18:26:31.948
193, -117.34, 102.88, 194.98, -2927.20, 0.000, 0.000, 0.000, 18:26:31.962
194, -93.02, 109.67, 184.68, -2973.45, 0.000, 0.000, 0.000, 18:26:31.962
195, -125.46, 114.46, 192.41, -3016.20, 0.000, 0.000, 0.000, 18:26:31.977
196, -132.92, 109.46, 198.47, -2984.91, 0.000, 0.000, 0.000, 18:26:31.977
197, -112.64, 102.75, 189.93, -2954.26, 0.000, 0.000, 0.000, 18:26:31.978
198, -106.26, 109.43, 193.85, -2908.33, 0.000, 0.000, 0.000, 18:26:31.980
199, -124.90, 114.03, 198.12, -3018.75, 0.000, 0.000, 0.000, 18:26:31.992
200, -119.59, 115.94, 192.07, -3074.32, 0.000, 0.000, 0.000, 18:26:31.992
0, -111.97, 104.12, 194.80, -2928.24, 0.000, 0.000, 0.000, 18:26:31.993
1, -104.72, 101.19, 179.81, -2948.15, 0.000, 0.000, 0.000, 18:26:32.007
2, -112.81, 118.79, 178.88, -3077.66, 0.000, 0.000, 0.000, 18:26:32.007
3, -142.29, 102.46, 183.25, -3012.61, 0.000, 0.000, 0.000, 18:26:32.022
4, -116.52, 100.44, 187.54, -2949.63, 0.000, 0.000, 0.000, 18:26:32.022
5, -105.77, 109.62, 184.31, -2960.91, 0.000, 0.000, 0.000, 18:26:32.023
6, -124.97, 118.74, 191.91, -3034.98, 0.000, 0.000, 0.000, 18:26:32.023
7, -132.95, 110.13, 198.58, -3032.04, 0.000, 0.000, 0.000, 18:26:32.037
8, -92.26, 115.01, 200.24, -2983.14, 0.000, 0.000, 0.000, 18:26:32.037
9, -86.41, 116.96, 206.74, -2949.60, 0.000, 0.000, 0.000, 18:26:32.052
10, -115.58, 112.97, 196.89, -3042.18, 0.000, 0.000, 0.000, 18:26:32.052
11, -120.97, 119.54, 201.46, -3028.99, 0.000, 0.000, 0.000, 18:26:32.053
12, -115.51, 102.17, 198.80, -2919.84, 0.000, 0.000, 0.000, 18:26:32.053
13, -91.89, 110.00, 202.36, -2936.21, 0.000, 0.000, 0.000, 18:26:32.067
14, -106.48, 117.65, 195.53, -3060.92, 0.000, 0.000, 0.000, 18:26:32.067
15, -128.44, 114.81, 204.76, -3024.74, 0.000, 0.000, 0.000, 18:26:32.082
16, -102.64, 108.29, 203.58, -2946.08, 0.000, 0.000, 0.000, 18:26:32.082
17, -82.17, 119.47, 199.16, -2958.63, 0.000, 0.000, 0.000, 18:26:32.083
18, -113.02, 117.42, 205.87, -2997.97, 0.000, 0.000, 0.000, 18:26:32.083
19, -128.01, 116.12, 203.34, -3019.66, 0.000, 0.000, 0.000, 18:26:32.097
20, -85.01, 118.90, 204.72, -3004.78, 0.000, 0.000, 0.000, 18:26:32.097
21, -83.89, 121.12, 209.08, -2942.84, 0.000, 0.000, 0.000, 18:26:32.112
22, -113.76, 124.32, 195.30, -3036.49, 0.000, 0.000, 0.000, 18:26:32.112
23, -125.31, 120.35, 198.03, -3032.51, 0.000, 0.000, 0.000, 18:26:32.113
24, -109.87, 107.94, 202.17, -2942.68, 0.000, 0.000, 0.000, 18:26:32.113
25, -91.29, 114.24, 199.94, -2948.23, 0.000, 0.000, 0.000, 18:26:32.127
26, -97.14, 123.18, 196.98, -3074.71, 0.000, 0.000, 0.000, 18:26:32.127
27, -130.78, 109.55, 202.61, -2998.89, 0.000, 0.000, 0.000, 18:26:32.142
28, -111.06, 94.22, 194.76, -2955.40, 0.000, 0.000, 0.000, 18:26:32.142
29, -84.72, 118.25, 199.91, -2974.80, 0.000, 0.000, 0.000, 18:26:32.143
30, -112.51, 119.90, 200.12, -3015.83, 0.000, 0.000, 0.000, 18:26:32.143
31, -124.85, 106.84, 203.16, -3044.93, 0.000, 0.000, 0.000, 18:26:32.157
32, -81.12, 112.70, 205.65, -3012.60, 0.000, 0.000, 0.000, 18:26:32.157
33, -86.76, 112.87, 197.84, -2956.65, 0.000, 0.000, 0.000, 18:26:32.172
34, -114.84, 117.51, 194.29, -3020.16, 0.000, 0.000, 0.000, 18:26:32.172
35, -128.90, 112.82, 200.69, -3027.49, 0.000, 0.000, 0.000, 18:26:32.175
36, -110.11, 113.35, 204.96, -2921.08, 0.000, 0.000, 0.000, 18:26:32.176
37, -91.11, 114.66, 203.28, -2947.19, 0.000, 0.000, 0.000, 18:26:32.187
38, -95.62, 133.74, 201.36, -3045.16, 0.000, 0.000, 0.000, 18:26:32.187
39, -134.65, 119.20, 209.68, -2980.71, 0.000, 0.000, 0.000, 18:26:32.202
40, -102.68, 114.93, 208.70, -2918.41, 0.000, 0.000, 0.000, 18:26:32.202
41, -86.22, 124.23, 199.57, -2940.61, 0.000, 0.000, 0.000, 18:26:32.203
42, -123.73, 119.42, 199.43, -3005.34, 0.000, 0.000, 0.000, 18:26:32.203
43, -129.38, 115.37, 206.50, -3002.90, 0.000, 0.000, 0.000, 18:26:32.232
44, -92.29, 109.58, 198.77, -2989.37, 0.000, 0.000, 0.000, 18:26:32.232
45, -91.06, 115.14, 207.25, -2911.07, 0.000, 0.000, 0.000, 18:26:32.233
46, -105.44, 120.42, 206.94, -3028.57, 0.000, 0.000, 0.000, 18:26:32.233
47, -123.22, 113.80, 203.05, -3027.60, 0.000, 0.000, 0.000, 18:26:32.233
48, -103.70, 102.30, 205.83, -2923.43, 0.000, 0.000, 0.000, 18:26:32.233
49, -92.77, 113.97, 203.53, -2934.73, 0.000, 0.000, 0.000, 18:26:32.247
50, -99.05, 126.17, 182.85, -3096.22, 0.000, 0.000, 0.000, 18:26:32.247
51, -133.11, 110.61, 200.99, -3020.91, 0.000, 0.000, 0.000, 18:26:32.262
52, -106.31, 106.96, 203.57, -2945.28, 0.000, 0.000, 0.000, 18:26:32.262
53, -81.78, 120.14, 206.80, -2958.76, 0.000, 0.000, 0.000, 18:26:32.263
54, -122.42, 108.89, 192.46, -3035.29, 0.000, 0.000, 0.000, 18:26:32.263
55, -123.64, 114.21, 203.12, -3036.94, 0.000, 0.000, 0.000, 18:26:32.277
56, -94.21, 109.87, 196.77, -2989.34, 0.000, 0.000, 0.000, 18:26:32.278
57, -91.76, 114.61, 202.88, -2946.25, 0.000, 0.000, 0.000, 18:26:32.292
58, -102.60, 126.66, 205.85, -3031.78, 0.000, 0.000, 0.000, 18:26:32.292
59, -114.17, 123.80, 202.88, -3046.49, 0.000, 0.000, 0.000, 18:26:32.293
60, -105.85, 109.84, 207.19, -2932.53, 0.000, 0.000, 0.000, 18:26:32.293
61, -90.97, 111.74, 200.99, -2957.66, 0.000, 0.000, 0.000, 18:26:32.307
62, -107.58, 124.44, 188.12, -3069.55, 0.000, 0.000, 0.000, 18:26:32.307
63, -133.68, 118.64, 201.10, -3000.74, 0.000, 0.000, 0.000, 18:26:32.322
64, -112.05, 107.86, 198.22, -2936.70, 0.000, 0.000, 0.000, 18:26:32.322
65, -97.32, 112.50, 191.18, -2947.17, 0.000, 0.000, 0.000, 18:26:32.323
66, -134.05, 108.93, 189.93, -3016.18, 0.000, 0.000, 0.000, 18:26:32.323
67, -133.05, 119.16, 204.71, -3002.36, 0.000, 0.000, 0.000, 18:26:32.337
68, -96.82, 113.55, 198.50, -2989.96, 0.000, 0.000, 0.000, 18:26:32.337
69, -98.21, 111.28, 197.59, -2919.78, 0.000, 0.000, 0.000, 18:26:32.352
70, -114.02, 115.56, 202.20, -2999.12, 0.000, 0.000, 0.000, 18:26:32.352
71, -112.87, 122.51, 213.09, -3006.40, 0.000, 0.000, 0.000, 18:26:32.353
72, -109.32, 103.41, 206.59, -2920.97, 0.000, 0.000, 0.000, 18:26:32.353
73, -89.24, 116.83, 204.32, -2940.73, 0.000, 0.000, 0.000, 18:26:32.367
74, -100.87, 125.22, 201.04, -3065.00, 0.000, 0.000, 0.000, 18:26:32.368
75, -134.80, 116.50, 209.11, -3002.06, 0.000, 0.000, 0.000, 18:26:32.382
76, -96.48, 106.19, 208.49, -2971.84, 0.000, 0.000, 0.000, 18:26:32.382
77, -79.70, 116.43, 198.35, -2963.98, 0.000, 0.000, 0.000, 18:26:32.383
78, -109.62, 119.34, 202.76, -2998.91, 0.000, 0.000, 0.000, 18:26:32.383
79, -130.17, 114.88, 205.84, -2974.89, 0.000, 0.000, 0.000, 18:26:32.397
80, -102.03, 102.96, 198.41, -2985.19, 0.000, 0.000, 0.000, 18:26:32.397
81, -89.98, 119.84, 206.38, -2907.44, 0.000, 0.000, 0.000, 18:26:32.412
82, -116.33, 117.63, 197.71, -3030.94, 0.000, 0.000, 0.000, 18:26:32.412
83, -131.60, 115.23, 199.66, -3041.45, 0.000, 0.000, 0.000, 18:26:32.413
84, -104.83, 109.63, 209.01, -2935.24, 0.000, 0.000, 0.000, 18:26:32.413
85, -87.16, 112.00, 205.93, -2953.48, 0.000, 0.000, 0.000, 18:26:32.428
86, -95.31, 123.21, 201.03, -3067.43, 0.000, 0.000, 0.000, 18:26:32.428
87, -126.33, 109.66, 205.67, -3026.37, 0.000, 0.000, 0.000, 18:26:32.442
88, -91.62, 109.69, 210.27, -2957.79, 0.000, 0.000, 0.000, 18:26:32.442
89, -82.03, 110.37, 193.11, -2972.99, 0.000, 0.000, 0.000, 18:26:32.443
90, -108.53, 125.62, 201.90, -3012.96, 0.000, 0.000, 0.000, 18:26:32.443
91, -118.84, 120.32, 209.97, -3028.72, 0.000, 0.000, 0.000, 18:26:32.457
92, -85.52, 119.79, 198.55, -2995.76, 0.000, 0.000, 0.000, 18:26:32.458
93, -93.15, 106.29, 193.88, -2938.10, 0.000, 0.000, 0.000, 18:26:32.472
94, -104.94, 124.50, 200.96, -3029.84, 0.000, 0.000, 0.000, 18:26:32.472
95, -126.47, 109.81, 191.90, -3065.13, 0.000, 0.000, 0.000, 18:26:32.473
96, -104.12, 102.84, 200.30, -2955.03, 0.000, 0.000, 0.000, 18:26:32.473
97, -90.76, 113.77, 193.67, -2963.04, 0.000, 0.000, 0.000, 18:26:32.487
98, -105.17, 123.63, 184.56, -3077.00, 0.000, 0.000, 0.000, 18:26:32.487
99, -133.06, 110.34, 198.91, -3018.12, 0.000, 0.000, 0.000, 18:26:32.502
100, -104.53, 115.67, 202.71, -2951.41, 0.000, 0.000, 0.000, 18:26:32.502
101, -85.42, 116.79, 194.12, -2967.62, 0.000, 0.000, 0.000, 18:26:32.503
102, -117.13, 113.79, 189.78, -3040.18, 0.000, 0.000, 0.000, 18:26:32.503
103, -122.37, 118.60, 202.03, -3033.75, 0.000, 0.000, 0.000, 18:26:32.517
104, -93.97, 116.72, 197.00, -2988.64, 0.000, 0.000, 0.000, 18:26:32.517
105, -92.34, 116.14, 201.52, -2927.80, 0.000, 0.000, 0.000, 18:26:32.547
106, -110.16, 120.33, 201.14, -3016.97, 0.000, 0.000, 0.000, 18:26:32.548
107, -116.73, 115.59, 205.80, -3029.10, 0.000, 0.000, 0.000, 18:26:32.548
108, -105.26, 111.75, 209.92, -2931.00, 0.000, 0.000, 0.000, 18:26:32.548
109, -85.58, 112.96, 204.58, -2968.96, 0.000, 0.000, 0.000, 18:26:32.548
110, -109.35, 124.49, 202.86, -3035.21, 0.000, 0.000, 0.000, 18:26:32.549
111, -123.31, 115.73, 202.49, -3044.43, 0.000, 0.000, 0.000, 18:26:32.549
112, -106.04, 106.29, 201.42, -2971.05, 0.000, 0.000, 0.000, 18:26:32.549
113, -50.55, 122.80, 185.90, -3102.84, 0.000, 0.000, 0.000, 18:26:32.562
114, -122.24, 112.73, 197.33, -3017.74, 0.000, 0.000, 0.000, 18:26:32.562
115, -130.63, 111.57, 201.67, -3025.84, 0.000, 0.000, 0.000, 18:26:32.577
116, -103.97, 106.37, 203.13, -2959.56, 0.000, 0.000, 0.000, 18:26:32.577
117, -99.83, 110.73, 197.75, -2912.00, 0.000, 0.000, 0.000, 18:26:32.592
118, -123.96, 113.28, 197.40, -3023.62, 0.000, 0.000, 0.000, 18:26:32.592
119, -126.71, 116.12, 196.71, -3039.18, 0.000, 0.000, 0.000, 18:26:32.593
120, -105.43, 115.34, 199.83, -2946.71, 0.000, 0.000, 0.000, 18:26:32.593
121, -91.11, 118.72, 193.29, -2940.90, 0.000, 0.000, 0.000, 18:26:32.607
122, -103.07, 140.63, 186.60, -3087.11, 0.000, 0.000, 0.000, 18:26:32.608
123, -122.81, 153.60, 204.56, -2997.71, 0.000, 0.000, 0.000, 18:26:32.622
124, -105.91, 144.50, 199.59, -2915.15, 0.000, 0.000, 0.000, 18:26:32.622
125, -83.48, 158.23, 206.88, -2897.65, 0.000, 0.000, 0.000, 18:26:32.623
126, -103.99, 173.29, 209.19, -2960.32, 0.000, 0.000, 0.000, 18:26:32.623
127, -110.53, 176.91, 212.33, -2988.01, 0.000, 0.000, 0.000, 18:26:32.637
128, -76.36, 184.94, 207.75, -2948.16, 0.000, 0.000, 0.000, 18:26:32.637
129, -74.13, 186.05, 210.08, -2872.88, 0.000, 0.000, 0.000, 18:26:32.652
130, -97.36, 194.11, 210.84, -2944.20, 0.000, 0.000, 0.000, 18:26:32.652
131, -105.51, 197.00, 213.83, -2967.37, 0.000, 0.000, 0.000, 18:26:32.653
132, -98.00, 185.01, 210.79, -2885.33, 0.000, 0.000, 0.000, 18:26:32.653
133, -71.80, 202.16, 218.28, -2866.83, 0.000, 0.000, 0.000, 18:26:32.667
134, -78.37, 213.59, 211.61, -2998.92, 0.000, 0.000, 0.000, 18:26:32.667
135, -110.14, 209.14, 218.90, -2943.93, 0.000, 0.000, 0.000, 18:26:32.682
136, -85.48, 199.13, 220.69, -2868.68, 0.000, 0.000, 0.000, 18:26:32.682
137, -70.99, 195.69, 209.43, -2884.01, 0.000, 0.000, 0.000, 18:26:32.683
138, -99.93, 185.18, 213.58, -2955.42, 0.000, 0.000, 0.000, 18:26:32.683
139, -103.36, 174.34, 220.11, -3002.10, 0.000, 0.000, 0.000, 18:26:32.697
140, -75.94, 157.11, 214.76, -2929.20, 0.000, 0.000, 0.000, 18:26:32.698
141, -78.09, 150.37, 216.63, -2882.99, 0.000, 0.000, 0.000, 18:26:32.712
142, -94.57, 143.73, 217.96, -2979.30, 0.000, 0.000, 0.000, 18:26:32.712
143, -115.22, 130.31, 207.25, -3013.06, 0.000, 0.000, 0.000, 18:26:32.713
144, -104.04, 111.56, 205.92, -2926.20, 0.000, 0.000, 0.000, 18:26:32.713
145, -82.61, 120.24, 208.71, -2930.98, 0.000, 0.000, 0.000, 18:26:32.727
146, -93.10, 121.44, 200.56, -3090.04, 0.000, 0.000, 0.000, 18:26:32.727
147, -124.01, 106.28, 213.29, -3008.85, 0.000, 0.000, 0.000, 18:26:32.742
148, -103.11, 91.18, 209.20, -2974.69, 0.000, 0.000, 0.000, 18:26:32.742
149, -86.00, 95.57, 200.69, -2961.14, 0.000, 0.000, 0.000, 18:26:32.743
150, -123.47, 97.67, 198.18, -3006.20, 0.000, 0.000, 0.000, 18:26:32.743
151, -133.07, 89.57, 208.68, -3024.91, 0.000, 0.000, 0.000, 18:26:32.757
152, -99.36, 83.21, 203.39, -2993.31, 0.000, 0.000, 0.000, 18:26:32.757
153, -97.81, 82.14, 202.66, -2954.57, 0.000, 0.000, 0.000, 18:26:32.772
154, -118.01, 84.60, 200.27, -3063.34, 0.000, 0.000, 0.000, 18:26:32.772
155, -124.39, 82.98, 202.53, -3076.33, 0.000, 0.000, 0.000, 18:26:32.773
156, -108.23, 79.00, 203.75, -2959.64, 0.000, 0.000, 0.000, 18:26:32.773
157, -95.60, 87.81, 205.23, -2969.14, 0.000, 0.000, 0.000, 18:26:32.787
158, -106.01, 93.26, 190.38, -3066.93, 0.000, 0.000, 0.000, 18:26:32.787
159, -136.99, 91.48, 211.17, -3005.99, 0.000, 0.000, 0.000, 18:26:32.802
160, -109.44, 76.63, 205.85, -2978.08, 0.000, 0.000, 0.000, 18:26:32.802
161, -94.23, 84.51, 193.88, -2991.89, 0.000, 0.000, 0.000, 18:26:32.803
162, -125.02, 85.58, 189.81, -3042.60, 0.000, 0.000, 0.000, 18:26:32.803
163, -146.03, 80.81, 194.90, -3049.76, 0.000, 0.000, 0.000, 18:26:32.817
164, -113.58, 80.48, 189.41, -2996.44, 0.000, 0.000, 0.000, 18:26:32.817
165, -109.49, 79.66, 196.92, -2954.36, 0.000, 0.000, 0.000, 18:26:32.832
166, -125.17, 86.31, 190.29, -3045.20, 0.000, 0.000, 0.000, 18:26:32.832
167, -137.10, 89.13, 190.42, -3068.48, 0.000, 0.000, 0.000, 18:26:32.833
168, -111.85, 83.45, 199.01, -2982.17, 0.000, 0.000, 0.000, 18:26:32.833
169, -97.75, 92.82, 197.46, -2976.57, 0.000, 0.000, 0.000, 18:26:32.862
170, -99.61, 107.21, 191.85, -3074.93, 0.000, 0.000, 0.000, 18:26:32.862
171, -136.69, 94.88, 196.34, -3044.73, 0.000, 0.000, 0.000, 18:26:32.862
172, -108.21, 95.94, 200.62, -2984.86, 0.000, 0.000, 0.000, 18:26:32.862
173, -90.01, 102.93, 198.43, -2964.37, 0.000, 0.000, 0.000, 18:26:32.863
174, -114.80, 106.75, 196.22, -3035.29, 0.000, 0.000, 0.000, 18:26:32.863
175, -136.64, 94.23, 192.26, -3054.57, 0.000, 0.000, 0.000, 18:26:32.877
176, -82.55, 104.46, 191.08, -3059.12, 0.000, 0.000, 0.000, 18:26:32.878
177, -92.06, 104.50, 197.62, -2950.31, 0.000, 0.000, 0.000, 18:26:32.892
178, -116.19, 107.44, 194.24, -3044.27, 0.000, 0.000, 0.000, 18:26:32.892
179, -125.81, 105.56, 199.52, -3049.76, 0.000, 0.000, 0.000, 18:26:32.893
180, -113.37, 93.34, 198.76, -2944.85, 0.000, 0.000, 0.000, 18:26:32.893
181, -94.68, 101.84, 200.52, -2934.45, 0.000, 0.000, 0.000, 18:26:32.907
182, -103.86, 106.52, 190.94, -3081.78, 0.000, 0.000, 0.000, 18:26:32.907
183, -131.88, 105.37, 199.13, -3035.75, 0.000, 0.000, 0.000, 18:26:32.922
184, -111.94, 94.64, 200.11, -2971.00, 0.000, 0.000, 0.000, 18:26:32.922
185, -84.47, 105.38, 194.01, -2966.34, 0.000, 0.000, 0.000, 18:26:32.923
186, -112.06, 112.54, 193.47, -3033.59, 0.000, 0.000, 0.000, 18:26:32.923
187, -129.65, 102.41, 192.00, -3057.20, 0.000, 0.000, 0.000, 18:26:32.937
188, -99.17, 104.45, 190.34, -3005.07, 0.000, 0.000, 0.000, 18:26:32.937
189, -99.23, 102.03, 199.12, -2949.46, 0.000, 0.000, 0.000, 18:26:32.952
190, -109.57, 113.06, 199.79, -3028.74, 0.000, 0.000, 0.000, 18:26:32.952
191, -118.56, 107.18, 200.25, -3060.17, 0.000, 0.000, 0.000, 18:26:32.953
192, -109.50, 95.00, 203.49, -2947.89, 0.000, 0.000, 0.000, 18:26:32.953
193, -86.86, 107.99, 201.24, -2958.18, 0.000, 0.000, 0.000, 18:26:32.967
194, -95.27, 113.12, 196.69, -3084.87, 0.000, 0.000, 0.000, 18:26:32.968
195, -123.70, 115.22, 208.34, -3022.50, 0.000, 0.000, 0.000, 18:26:32.982
196, -100.99, 101.19, 206.45, -2966.25, 0.000, 0.000, 0.000, 18:26:32.982
197, -86.27, 114.50, 203.57, -2950.58, 0.000, 0.000, 0.000, 18:26:32.983
198, -121.31, 115.61, 198.22, -2997.00, 0.000, 0.000, 0.000, 18:26:32.983
199, -130.44, 110.99, 205.03, -3023.80, 0.000, 0.000, 0.000, 18:26:32.997
200, -100.80, 104.35, 196.01, -2991.35, 0.000, 0.000, 0.000, 18:26:32.997
0, -107.01, 98.31, 193.04, -2922.00, 0.000, 0.000, 0.000, 18:26:32.998
1, -119.22, 111.75, 196.19, -3030.07, 0.000, 0.000, 0.000, 18:26:33.012
2, -113.12, 116.92, 198.20, -3080.90, 0.000, 0.000, 0.000, 18:26:33.012
3, -105.33, 104.76, 211.43, -2939.36, 0.000, 0.000, 0.000, 18:26:33.027
4, -85.98, 115.82, 208.42, -2939.64, 0.000, 0.000, 0.000, 18:26:33.027
5, -106.44, 116.05, 198.69, -3046.29, 0.000, 0.000, 0.000, 18:26:33.028
6, -129.47, 113.71, 210.70, -3003.25, 0.000, 0.000, 0.000, 18:26:33.028
7, -97.41, 110.54, 214.69, -2967.17, 0.000, 0.000, 0.000, 18:26:33.042
8, -72.50, 116.99, 201.84, -3001.03, 0.000, 0.000, 0.000, 18:26:33.042
9, -103.17, 115.25, 198.79, -3031.96, 0.000, 0.000, 0.000, 18:26:33.057
10, -120.03, 117.50, 208.26, -3035.84, 0.000, 0.000, 0.000, 18:26:33.057
11, -99.41, 112.02, 197.68, -2976.59, 0.000, 0.000, 0.000, 18:26:33.058
12, -98.50, 107.68, 193.67, -2925.27, 0.000, 0.000, 0.000, 18:26:33.058
13, -124.74, 106.18, 190.33, -3009.57, 0.000, 0.000, 0.000, 18:26:33.073
14, -129.76, 106.85, 187.83, -3084.87, 0.000, 0.000, 0.000, 18:26:33.073
15, -114.59, 99.27, 200.91, -2956.01, 0.000, 0.000, 0.000, 18:26:33.087
16, -92.33, 109.16, 195.81, -2954.37, 0.000, 0.000, 0.000, 18:26:33.087
17, -116.11, 113.78, 182.37, -3050.92, 0.000, 0.000, 0.000, 18:26:33.088
18, -137.81, 104.28, 195.43, -3054.08, 0.000, 0.000, 0.000, 18:26:33.088
19, -109.34, 107.31, 199.02, -2975.12, 0.000, 0.000, 0.000, 18:26:33.102
20, -83.26, 117.55, 186.46, -3003.02, 0.000, 0.000, 0.000, 18:26:33.102
21, -116.47, 118.03, 194.56, -3012.61, 0.000, 0.000, 0.000, 18:26:33.117
22, -137.30, 112.15, 196.95, -3041.13, 0.000, 0.000, 0.000, 18:26:33.117
23, -116.58, 98.76, 189.89, -2948.62, 0.000, 0.000, 0.000, 18:26:33.118
24, -99.09, 111.07, 193.16, -2908.33, 0.000, 0.000, 0.000, 18:26:33.118
25, -114.42, 119.92, 199.47, -3007.06, 0.000, 0.000, 0.000, 18:26:33.132
26, -124.75, 115.65, 191.74, -3076.82, 0.000, 0.000, 0.000, 18:26:33.133
27, -115.88, 108.51, 203.25, -2942.21, 0.000, 0.000, 0.000, 18:26:33.147
28, -95.97, 111.03, 202.81, -2915.02, 0.000, 0.000, 0.000, 18:26:33.147
29, -113.46, 115.04, 194.20, -3003.38, 0.000, 0.000, 0.000, 18:26:33.148
30, -121.30, 118.55, 206.42, -3028.48, 0.000, 0.000, 0.000, 18:26:33.148
31, -103.89, 103.43, 206.56, -2990.99, 0.000, 0.000, 0.000, 18:26:33.163
32, -76.65, 112.06, 194.73, -3008.71, 0.000, 0.000, 0.000, 18:26:33.163
33, -109.23, 117.16, 198.09, -3017.22, 0.000, 0.000, 0.000, 18:26:33.192
34, -130.76, 113.77, 200.98, -3033.43, 0.000, 0.000, 0.000, 18:26:33.192
35, -112.36, 101.53, 196.25, -2956.93, 0.000, 0.000, 0.000, 18:26:33.192
36, -98.75, 107.01, 200.86, -2903.84, 0.000, 0.000, 0.000, 18:26:33.193
37, -111.53, 123.73, 206.95, -2998.95, 0.000, 0.000, 0.000, 18:26:33.193
38, -121.00, 118.78, 215.12, -3018.29, 0.000, 0.000, 0.000, 18:26:33.193
39, -111.08, 99.08, 207.13, -2947.99, 0.000, 0.000, 0.000, 18:26:33.194
40, -87.96, 113.13, 204.13, -2940.73, 0.000, 0.000, 0.000, 18:26:33.194
41, -67.74, 132.34, 191.00, -3153.98, 0.000, 0.000, 0.000, 18:26:33.207
42, -138.42, 119.62, 209.32, -2988.07, 0.000, 0.000, 0.000, 18:26:33.208
43, -100.15, 112.69, 216.20, -2945.16, 0.000, 0.000, 0.000, 18:26:33.222
44, -80.62, 115.83, 207.04, -2940.23, 0.000, 0.000, 0.000, 18:26:33.222
45, -102.70, 120.49, 208.17, -3013.21, 0.000, 0.000, 0.000, 18:26:33.237
46, -118.50, 117.87, 214.75, -3040.14, 0.000, 0.000, 0.000, 18:26:33.237
47, -102.64, 108.41, 211.28, -2943.96, 0.000, 0.000, 0.000, 18:26:33.238
48, -90.39, 113.30, 211.75, -2912.34, 0.000, 0.000, 0.000, 18:26:33.238
49, -106.75, 112.19, 203.69, -3034.28, 0.000, 0.000, 0.000, 18:26:33.252
50, -108.91, 124.04, 201.42, -3063.84, 0.000, 0.000, 0.000, 18:26:33.253
51, -104.46, 109.74, 211.01, -2952.37, 0.000, 0.000, 0.000, 18:26:33.267
52, -89.82, 110.43, 199.56, -2938.70, 0.000, 0.000, 0.000, 18:26:33.267
53, -102.85, 114.63, 190.85, -3045.40, 0.000, 0.000, 0.000, 18:26:33.268
54, -123.53, 120.55, 209.24, -3026.97, 0.000, 0.000, 0.000, 18:26:33.268
55, -108.38, 105.27, 202.61, -2977.33, 0.000, 0.000, 0.000, 18:26:33.282
56, -80.60, 107.28, 191.21, -2996.13, 0.000, 0.000, 0.000, 18:26:33.282
57, -112.92, 115.15, 200.42, -2991.83, 0.000, 0.000, 0.000, 18:26:33.297
58, -134.27, 111.37, 201.86, -3023.26, 0.000, 0.000, 0.000, 18:26:33.297
59, -107.70, 104.98, 204.19, -2946.77, 0.000, 0.000, 0.000, 18:26:33.298
60, -99.17, 107.36, 199.99, -2915.38, 0.000, 0.000, 0.000, 18:26:33.298
61, -117.55, 111.89, 194.70, -3009.03, 0.000, 0.000, 0.000, 18:26:33.312
62, -119.91, 116.07, 194.00, -3073.72, 0.000, 0.000, 0.000, 18:26:33.312
63, -111.27, 107.73, 200.53, -2956.13, 0.000, 0.000, 0.000, 18:26:33.327
64, -94.88, 107.02, 195.66, -2949.03, 0.000, 0.000, 0.000, 18:26:33.327
65, -101.87, 121.96, 199.63, -3052.13, 0.000, 0.000, 0.000, 18:26:33.328
66, -130.38, 113.14, 202.44, -3038.24, 0.000, 0.000, 0.000, 18:26:33.328
67, -109.20, 109.93, 204.31, -2941.91, 0.000, 0.000, 0.000, 18:26:33.342
68, -75.05, 124.77, 199.18, -2996.38, 0.000, 0.000, 0.000, 18:26:33.342
69, -114.82, 120.77, 198.03, -3000.61, 0.000, 0.000, 0.000, 18:26:33.357
70, -133.12, 111.42, 201.27, -3038.98, 0.000, 0.000, 0.000, 18:26:33.357
71, -103.74, 112.69, 202.20, -2962.22, 0.000, 0.000, 0.000, 18:26:33.358
72, -91.01, 108.10, 202.66, -2928.49, 0.000, 0.000, 0.000, 18:26:33.358
73, -107.87, 117.71, 201.49, -3039.76, 0.000, 0.000, 0.000, 18:26:33.372
74, -113.00, 120.64, 198.16, -3109.77, 0.000, 0.000, 0.000, 18:26:33.372
75, -115.31, 105.40, 201.68, -2962.94, 0.000, 0.000, 0.000, 18:26:33.387
76, -84.89, 114.32, 202.13, -2948.16, 0.000, 0.000, 0.000, 18:26:33.387
77, -103.08, 124.32, 195.26, -3055.24, 0.000, 0.000, 0.000, 18:26:33.388
78, -127.95, 111.56, 200.33, -3044.73, 0.000, 0.000, 0.000, 18:26:33.388
79, -103.76, 109.88, 205.46, -2981.47, 0.000, 0.000, 0.000, 18:26:33.402
80, -81.55, 110.76, 187.11, -2996.27, 0.000, 0.000, 0.000, 18:26:33.402
81, -111.17, 116.79, 195.33, -3026.94, 0.000, 0.000, 0.000, 18:26:33.417
82, -130.44, 109.86, 194.60, -3069.73, 0.000, 0.000, 0.000, 18:26:33.417
83, -112.41, 104.36, 189.55, -3013.39, 0.000, 0.000, 0.000, 18:26:33.418
84, -97.90, 107.05, 190.66, -2943.21, 0.000, 0.000, 0.000, 18:26:33.418
85, -104.00, 126.09, 196.55, -3005.70, 0.000, 0.000, 0.000, 18:26:33.432
86, -116.12, 124.99, 196.09, -3070.51, 0.000, 0.000, 0.000, 18:26:33.432
87, -113.52, 111.91, 204.25, -2943.64, 0.000, 0.000, 0.000, 18:26:33.447
88, -88.50, 109.77, 200.19, -2942.25, 0.000, 0.000, 0.000, 18:26:33.447
89, -104.00, 121.48, 193.49, -3052.52, 0.000, 0.000, 0.000, 18:26:33.448
90, -122.85, 117.35, 201.99, -3037.43, 0.000, 0.000, 0.000, 18:26:33.448
91, -103.94, 110.57, 204.77, -2976.84, 0.000, 0.000, 0.000, 18:26:33.462
92, -76.16, 124.65, 197.88, -2983.22, 0.000, 0.000, 0.000, 18:26:33.462
93, -112.80, 121.00, 201.05, -3001.91, 0.000, 0.000, 0.000, 18:26:33.477
94, -127.32, 121.85, 207.21, -3033.25, 0.000, 0.000, 0.000, 18:26:33.477
95, -99.40, 112.18, 207.75, -2960.35, 0.000, 0.000, 0.000, 18:26:33.478
96, -87.57, 112.84, 205.21, -2907.17, 0.000, 0.000, 0.000, 18:26:33.478
97, -111.13, 118.29, 201.16, -2993.79, 0.000, 0.000, 0.000, 18:26:33.507
98, -111.36, 118.30, 198.89, -3070.07, 0.000, 0.000, 0.000, 18:26:33.507
99, -101.22, 114.92, 211.26, -2937.89, 0.000, 0.000, 0.000, 18:26:33.508
100, -80.23, 120.62, 214.36, -2928.30, 0.000, 0.000, 0.000, 18:26:33.508
101, -102.98, 124.30, 211.37, -2987.09, 0.000, 0.000, 0.000, 18:26:33.508
102, -121.56, 119.56, 215.01, -3012.45, 0.000, 0.000, 0.000, 18:26:33.508
103, -101.75, 112.75, 215.72, -2953.42, 0.000, 0.000, 0.000, 18:26:33.522
104, -58.64, 118.94, 199.32, -2995.35, 0.000, 0.000, 0.000, 18:26:33.522
105, -115.55, 124.80, 205.80, -2984.24, 0.000, 0.000, 0.000, 18:26:33.537
106, -132.01, 114.23, 207.45, -3012.76, 0.000, 0.000, 0.000, 18:26:33.537
107, -106.65, 112.63, 208.85, -2968.60, 0.000, 0.000, 0.000, 18:26:33.538
108, -92.58, 112.65, 206.08, -2938.08, 0.000, 0.000, 0.000, 18:26:33.538
109, -103.62, 118.69, 203.98, -3037.23, 0.000, 0.000, 0.000, 18:26:33.552
110, -115.42, 122.72, 197.75, -3070.90, 0.000, 0.000, 0.000, 18:26:33.552
111, -116.94, 99.04, 194.39, -2982.45, 0.000, 0.000, 0.000, 18:26:33.567
112, -93.83, 111.40, 196.90, -2932.98, 0.000, 0.000, 0.000, 18:26:33.567
113, -111.65, 119.84, 194.35, -3006.46, 0.000, 0.000, 0.000, 18:26:33.568
114, -126.37, 113.10, 199.33, -3058.28, 0.000, 0.000, 0.000, 18:26:33.568
115, -109.35, 110.49, 196.95, -2972.36, 0.000, 0.000, 0.000, 18:26:33.582
116, -78.14, 115.38, 189.50, -2991.47, 0.000, 0.000, 0.000, 18:26:33.583
117, -106.20, 117.76, 195.41, -3035.78, 0.000, 0.000, 0.000, 18:26:33.597
118, -127.10, 112.62, 197.06, -3039.01, 0.000, 0.000, 0.000, 18:26:33.597
119, -103.94, 108.69, 203.73, -2960.17, 0.000, 0.000, 0.000, 18:26:33.598
120, -90.69, 105.94, 206.86, -2915.48, 0.000, 0.000, 0.000, 18:26:33.598
121, -100.61, 114.68, 206.22, -3021.90, 0.000, 0.000, 0.000, 18:26:33.612
122, -104.20, 130.47, 211.95, -3072.71, 0.000, 0.000, 0.000, 18:26:33.613
123, -99.40, 116.16, 219.48, -2948.87, 0.000, 0.000, 0.000, 18:26:33.627
124, -79.37, 115.50, 212.60, -2939.60, 0.000, 0.000, 0.000, 18:26:33.627
125, -90.88, 125.89, 208.66, -3034.59, 0.000, 0.000, 0.000, 18:26:33.628
126, -131.55, 113.13, 204.49, -3010.77, 0.000, 0.000, 0.000, 18:26:33.628
127, -103.64, 115.27, 207.56, -2958.12, 0.000, 0.000, 0.000, 18:26:33.642
128, -69.75, 119.25, 199.09, -2977.96, 0.000, 0.000, 0.000, 18:26:33.642
129, -110.76, 122.55, 203.66, -2987.01, 0.000, 0.000, 0.000, 18:26:33.657
130, -123.35, 117.33, 203.60, -3037.38, 0.000, 0.000, 0.000, 18:26:33.657
131, -108.15, 109.99, 205.41, -2946.46, 0.000, 0.000, 0.000, 18:26:33.658
132, -88.86, 115.79, 207.98, -2920.77, 0.000, 0.000, 0.000, 18:26:33.658
133, -102.85, 122.63, 200.12, -3030.14, 0.000, 0.000, 0.000, 18:26:33.672
134, -113.15, 127.64, 191.83, -3087.20, 0.000, 0.000, 0.000, 18:26:33.672
135, -109.52, 112.86, 204.11, -2946.23, 0.000, 0.000, 0.000, 18:26:33.687
136, -87.05, 117.12, 203.40, -2942.19, 0.000, 0.000, 0.000, 18:26:33.687
137, -106.88, 127.24, 193.57, -3026.86, 0.000, 0.000, 0.000, 18:26:33.688
138, -128.50, 119.56, 209.32, -3046.36, 0.000, 0.000, 0.000, 18:26:33.688
139, -104.15, 116.72, 205.71, -2981.93, 0.000, 0.000, 0.000, 18:26:33.702
140, -82.07, 120.25, 189.81, -2987.51, 0.000, 0.000, 0.000, 18:26:33.702
141, -117.87, 121.02, 197.28, -3006.92, 0.000, 0.000, 0.000, 18:26:33.717
142, -134.54, 116.17, 199.58, -3044.79, 0.000, 0.000, 0.000, 18:26:33.717
143, -111.31, 112.26, 199.44, -2958.23, 0.000, 0.000, 0.000, 18:26:33.718
144, -96.60, 108.05, 197.56, -2927.21, 0.000, 0.000, 0.000, 18:26:33.718
145, -112.02, 115.71, 196.40, -3011.38, 0.000, 0.000, 0.000, 18:26:33.732
146, -118.38, 119.85, 195.28, -3084.90, 0.000, 0.000, 0.000, 18:26:33.732
147, -117.95, 100.62, 195.25, -2953.55, 0.000, 0.000, 0.000, 18:26:33.747
148, -91.02, 113.40, 200.10, -2948.54, 0.000, 0.000, 0.000, 18:26:33.747
149, -103.73, 118.10, 197.46, -3045.99, 0.000, 0.000, 0.000, 18:26:33.748
150, -132.24, 105.58, 196.94, -3040.55, 0.000, 0.000, 0.000, 18:26:33.748
151, -108.51, 109.47, 203.62, -2960.07, 0.000, 0.000, 0.000, 18:26:33.762
152, -78.67, 115.14, 196.86, -2980.55, 0.000, 0.000, 0.000, 18:26:33.762
153, -109.23, 121.59, 205.72, -2995.25, 0.000, 0.000, 0.000, 18:26:33.777
154, -127.95, 117.03, 202.47, -3026.44, 0.000, 0.000, 0.000, 18:26:33.777
155, -105.96, 109.46, 200.63, -2963.16, 0.000, 0.000, 0.000, 18:26:33.778
156, -87.89, 110.60, 205.87, -2929.08, 0.000, 0.000, 0.000, 18:26:33.778
157, -99.89, 114.03, 202.57, -3042.49, 0.000, 0.000, 0.000, 18:26:33.792
158, -108.06, 124.47, 199.53, -3075.88, 0.000, 0.000, 0.000, 18:26:33.792
159, -111.91, 105.62, 203.90, -2944.13, 0.000, 0.000, 0.000, 18:26:33.822
160, -83.84, 110.87, 207.78, -2923.33, 0.000, 0.000, 0.000, 18:26:33.822
161, -95.10, 122.23, 207.32, -3025.79, 0.000, 0.000, 0.000, 18:26:33.823
162, -133.30, 111.91, 202.45, -3028.08, 0.000, 0.000, 0.000, 18:26:33.823
163, -103.29, 109.38, 213.55, -2951.83, 0.000, 0.000, 0.000, 18:26:33.823
164, -89.71, 108.95, 199.04, -2954.53, 0.000, 0.000, 0.000, 18:26:33.823
165, -113.65, 116.71, 197.90, -3012.86, 0.000, 0.000, 0.000, 18:26:33.824
166, -133.00, 109.91, 197.54, -3049.74, 0.000, 0.000, 0.000, 18:26:33.824
167, -77.66, 116.17, 186.42, -3089.19, 0.000, 0.000, 0.000, 18:26:33.839
168, -115.32, 99.95, 191.17, -2910.21, 0.000, 0.000, 0.000, 18:26:33.839
169, -117.48, 110.50, 189.61, -3030.92, 0.000, 0.000, 0.000, 18:26:33.852
170, -122.75, 117.40, 200.35, -3044.99, 0.000, 0.000, 0.000, 18:26:33.852
171, -115.55, 103.17, 201.93, -2936.17, 0.000, 0.000, 0.000, 18:26:33.867
172, -104.09, 102.36, 200.14, -2926.39, 0.000, 0.000, 0.000, 18:26:33.867
173, -113.17, 118.32, 200.73, -3002.03, 0.000, 0.000, 0.000, 18:26:33.868
174, -134.26, 108.57, 198.99, -3053.28, 0.000, 0.000, 0.000, 18:26:33.868
175, -109.63, 105.19, 198.27, -2999.36, 0.000, 0.000, 0.000, 18:26:33.882
176, -77.09, 115.40, 187.70, -3008.91, 0.000, 0.000, 0.000, 18:26:33.882
177, -107.98, 118.12, 201.30, -3008.79, 0.000, 0.000, 0.000, 18:26:33.897
178, -125.51, 118.62, 206.78, -3042.27, 0.000, 0.000, 0.000, 18:26:33.897
179, -99.36, 115.24, 206.06, -2970.43, 0.000, 0.000, 0.000, 18:26:33.898
180, -91.18, 112.04, 204.37, -2907.77, 0.000, 0.000, 0.000, 18:26:33.898
181, -107.34, 117.23, 196.22, -3016.23, 0.000, 0.000, 0.000, 18:26:33.912
182, -117.22, 120.32, 190.67, -3083.42, 0.000, 0.000, 0.000, 18:26:33.912
183, -115.83, 105.48, 198.60, -2955.12, 0.000, 0.000, 0.000, 18:26:33.927
184, -96.57, 108.57, 201.96, -2937.28, 0.000, 0.000, 0.000, 18:26:33.927
185, -98.26, 126.32, 202.22, -3035.56, 0.000, 0.000, 0.000, 18:26:33.942
186, -130.05, 125.18, 205.38, -2974.68, 0.000, 0.000, 0.000, 18:26:33.943
187, -110.85, 112.64, 208.90, -2938.26, 0.000, 0.000, 0.000, 18:26:33.943
188, -76.53, 119.04, 202.38, -2972.94, 0.000, 0.000, 0.000, 18:26:33.943
189, -107.83, 120.57, 198.21, -3009.05, 0.000, 0.000, 0.000, 18:26:33.957
190, -126.69, 123.07, 204.64, -3032.36, 0.000, 0.000, 0.000, 18:26:33.957
191, -99.23, 116.54, 202.74, -3000.26, 0.000, 0.000, 0.000, 18:26:33.958
192, -98.77, 108.17, 201.53, -2918.86, 0.000, 0.000, 0.000, 18:26:33.958
193, -103.16, 118.80, 202.46, -3023.43, 0.000, 0.000, 0.000, 18:26:33.972
194, -111.32, 117.11, 196.09, -3100.38, 0.000, 0.000, 0.000, 18:26:33.972
195, -115.78, 101.04, 200.70, -2962.92, 0.000, 0.000, 0.000, 18:26:33.987
196, -86.00, 109.26, 208.59, -2947.69, 0.000, 0.000, 0.000, 18:26:33.987
197, -86.34, 133.83, 205.50, -3058.79, 0.000, 0.000, 0.000, 18:26:33.988
198, -128.44, 115.56, 199.91, -3031.51, 0.000, 0.000, 0.000, 18:26:33.988
199, -111.94, 108.82, 204.69, -2968.80, 0.000, 0.000, 0.000, 18:26:34.002
200, -81.71, 112.11, 195.12, -2980.94, 0.000, 0.000, 0.000, 18:26:34.002
0, -112.74, 121.32, 197.35, -2987.44, 0.000, 0.000, 0.000, 18:26:34.003
1, -129.98, 115.62, 201.67, -3026.03, 0.000, 0.000, 0.000, 18:26:34.017
2, -99.17, 111.41, 204.10, -2983.42, 0.000, 0.000, 0.000, 18:26:34.017
3, -98.26, 107.34, 205.41, -2887.22, 0.000, 0.000, 0.000, 18:26:34.032
4, -116.32, 116.95, 201.68, -2991.43, 0.000, 0.000, 0.000, 18:26:34.032
5, -133.88, 111.30, 196.92, -3018.99, 0.000, 0.000, 0.000, 18:26:34.033
6, -125.76, 99.44, 202.26, -2933.55, 0.000, 0.000, 0.000, 18:26:34.033
7, -100.78, 106.71, 202.08, -2910.54, 0.000, 0.000, 0.000, 18:26:34.047
8, -102.59, 115.10, 192.60, -3041.60, 0.000, 0.000, 0.000, 18:26:34.047
9, -134.86, 114.29, 201.09, -3023.25, 0.000, 0.000, 0.000, 18:26:34.062
10, -111.11, 102.32, 206.08, -2966.10, 0.000, 0.000, 0.000, 18:26:34.062
11, -85.65, 109.90, 196.37, -2950.11, 0.000, 0.000, 0.000, 18:26:34.063
12, -103.89, 120.88, 201.72, -3007.50, 0.000, 0.000, 0.000, 18:26:34.063
13, -115.47, 121.72, 205.45, -3068.16, 0.000, 0.000, 0.000, 18:26:34.077
14, -89.07, 119.19, 197.38, -3010.57, 0.000, 0.000, 0.000, 18:26:34.077
15, -88.73, 111.93, 197.85, -2948.79, 0.000, 0.000, 0.000, 18:26:34.092
16, -100.22, 119.21, 201.91, -3030.99, 0.000, 0.000, 0.000, 18:26:34.092
17, -116.68, 121.01, 201.84, -3050.08, 0.000, 0.000, 0.000, 18:26:34.093
18, -105.61, 110.55, 211.16, -2955.32, 0.000, 0.000, 0.000, 18:26:34.093
19, -79.07, 121.05, 211.12, -2948.97, 0.000, 0.000, 0.000, 18:26:34.107
20, -87.56, 130.35, 197.45, -3072.17, 0.000, 0.000, 0.000, 18:26:34.107
21, -117.78, 126.09, 205.48, -3036.75, 0.000, 0.000, 0.000, 18:26:34.122
22, -99.65, 110.53, 202.45, -2985.83, 0.000, 0.000, 0.000, 18:26:34.122
23, -76.46, 119.46, 200.61, -2952.20, 0.000, 0.000, 0.000, 18:26:34.123
24, -109.94, 113.78, 195.44, -3013.24, 0.000, 0.000, 0.000, 18:26:34.123
25, -124.75, 119.33, 205.20, -3054.66, 0.000, 0.000, 0.000, 18:26:34.152
26, -107.28, 108.59, 187.90, -3013.56, 0.000, 0.000, 0.000, 18:26:34.152
27, -96.47, 110.32, 199.09, -2922.38, 0.000, 0.000, 0.000, 18:26:34.153
28, -101.14, 127.42, 204.97, -3008.86, 0.000, 0.000, 0.000, 18:26:34.153
29, -127.78, 121.29, 204.15, -3017.04, 0.000, 0.000, 0.000, 18:26:34.154
30, -117.39, 109.67, 199.74, -2964.30, 0.000, 0.000, 0.000, 18:26:34.154
31, -93.57, 116.11, 206.79, -2926.09, 0.000, 0.000, 0.000, 18:26:34.167
