%OpenBCI Raw EEG Data
%Number of channels = 4
%Sample Rate = 200.0 Hz
%First Column = SampleIndex
%Last Column = Timestamp 
%Other Columns = EEG data in microvolts followed by Accel Data (in G) interleaved with Aux Data
0, -147.35, -132.01, -104.02, -251.25, 0.000, 0.000, 0.000, 23:40:47.462, 1547019647462
1, -156.66, -145.67, -108.36, -252.09, 0.000, 0.000, 0.000, 23:40:47.478, 1547019647478
2, -145.24, -135.16, -83.10, -232.78, 0.000, 0.000, 0.000, 23:40:47.478, 1547019647478
3, -144.94, -136.07, -112.14, -254.51, 0.000, 0.000, 0.000, 23:40:47.492, 1547019647492
4, -159.02, -149.02, -143.74, -289.34, 0.000, 0.000, 0.000, 23:40:47.492, 1547019647492
5, -156.72, -145.10, -118.49, -253.45, 0.000, 0.000, 0.000, 23:40:47.493, 1547019647493
6, -146.71, -137.03, -97.62, -253.39, 0.000, 0.000, 0.000, 23:40:47.493, 1547019647493
7, -151.91, -140.70, -94.56, -250.69, 0.000, 0.000, 0.000, 23:40:47.507, 1547019647507
8, -161.48, -148.12, -111.20, -264.09, 0.000, 0.000, 0.000, 23:40:47.507, 1547019647507
9, -147.81, -138.73, -86.02, -244.65, 0.000, 0.000, 0.000, 23:40:47.522, 1547019647522
10, -138.51, -130.78, -76.61, -233.14, 0.000, 0.000, 0.000, 23:40:47.522, 1547019647522
11, -149.88, -138.95, -95.77, -245.93, 0.000, 0.000, 0.000, 23:40:47.523, 1547019647523
12, -144.73, -133.34, -78.31, -231.16, 0.000, 0.000, 0.000, 23:40:47.523, 1547019647523
13, -154.99, -143.50, -94.59, -248.72, 0.000, 0.000, 0.000, 23:40:47.537, 1547019647537
14, -138.74, -135.53, -94.95, -242.35, 0.000, 0.000, 0.000, 23:40:47.537, 1547019647537
15, -144.26, -136.94, -105.29, -256.62, 0.000, 0.000, 0.000, 23:40:47.552, 1547019647552
16, -152.27, -140.39, -116.01, -258.75, 0.000, 0.000, 0.000, 23:40:47.552, 1547019647552
17, -155.16, -147.06, -114.72, -264.49, 0.000, 0.000, 0.000, 23:40:47.553, 1547019647553
18, -147.84, -146.34, -99.74, -260.36, 0.000, 0.000, 0.000, 23:40:47.553, 1547019647553
19, -143.41, -132.99, -95.38, -245.53, 0.000, 0.000, 0.000, 23:40:47.568, 1547019647568
20, -148.67, -138.02, -116.61, -262.11, 0.000, 0.000, 0.000, 23:40:47.568, 1547019647568
21, -159.10, -151.52, -112.25, -263.15, 0.000, 0.000, 0.000, 23:40:47.582, 1547019647582
22, -149.24, -143.84, -101.32, -260.81, 0.000, 0.000, 0.000, 23:40:47.582, 1547019647582
23, -144.37, -130.57, -95.36, -245.62, 0.000, 0.000, 0.000, 23:40:47.583, 1547019647583
24, -152.53, -138.27, -114.18, -258.65, 0.000, 0.000, 0.000, 23:40:47.583, 1547019647583
25, -153.54, -146.08, -93.94, -247.75, 0.000, 0.000, 0.000, 23:40:47.604, 1547019647604
26, -145.96, -133.78, -99.25, -252.74, 0.000, 0.000, 0.000, 23:40:47.604, 1547019647604
27, -148.60, -139.44, -102.39, -258.30, 0.000, 0.000, 0.000, 23:40:47.613, 1547019647613
28, -155.17, -139.34, -111.97, -251.27, 0.000, 0.000, 0.000, 23:40:47.613, 1547019647613
29, -156.37, -151.90, -101.17, -253.40, 0.000, 0.000, 0.000, 23:40:47.615, 1547019647615
30, -143.38, -128.33, -92.89, -255.60, 0.000, 0.000, 0.000, 23:40:47.615, 1547019647615
31, -156.19, -140.59, -100.53, -269.87, 0.000, 0.000, 0.000, 23:40:47.627, 1547019647627
32, -150.66, -133.32, -88.82, -244.48, 0.000, 0.000, 0.000, 23:40:47.627, 1547019647627
33, -155.93, -146.98, -126.11, -260.06, 0.000, 0.000, 0.000, 23:40:47.642, 1547019647642
34, -151.56, -136.63, -112.68, -263.38, 0.000, 0.000, 0.000, 23:40:47.642, 1547019647642
35, -151.09, -145.82, -86.88, -250.50, 0.000, 0.000, 0.000, 23:40:47.643, 1547019647643
36, -157.17, -143.49, -90.08, -246.58, 0.000, 0.000, 0.000, 23:40:47.643, 1547019647643
37, -137.89, -120.93, -100.84, -258.72, 0.000, 0.000, 0.000, 23:40:47.657, 1547019647657
38, -146.40, -140.99, -92.75, -252.27, 0.000, 0.000, 0.000, 23:40:47.657, 1547019647657
39, -155.93, -144.20, -106.39, -265.08, 0.000, 0.000, 0.000, 23:40:47.672, 1547019647672
40, -171.33, -158.58, -111.05, -263.42, 0.000, 0.000, 0.000, 23:40:47.672, 1547019647672
41, -170.26, -160.96, -122.43, -280.75, 0.000, 0.000, 0.000, 23:40:47.673, 1547019647673
42, -170.06, -156.08, -125.34, -273.24, 0.000, 0.000, 0.000, 23:40:47.673, 1547019647673
43, -160.92, -146.40, -122.03, -268.55, 0.000, 0.000, 0.000, 23:40:47.687, 1547019647687
44, -173.61, -156.06, -123.33, -268.05, 0.000, 0.000, 0.000, 23:40:47.687, 1547019647687
45, -168.51, -155.26, -98.83, -246.39, 0.000, 0.000, 0.000, 23:40:47.702, 1547019647702
46, -159.26, -149.78, -94.70, -246.82, 0.000, 0.000, 0.000, 23:40:47.702, 1547019647702
47, -153.41, -148.02, -91.68, -257.29, 0.000, 0.000, 0.000, 23:40:47.703, 1547019647703
48, -160.70, -147.76, -109.21, -259.80, 0.000, 0.000, 0.000, 23:40:47.703, 1547019647703
49, -170.70, -161.26, -122.35, -271.74, 0.000, 0.000, 0.000, 23:40:47.717, 1547019647717
50, -151.93, -138.97, -73.49, -230.02, 0.000, 0.000, 0.000, 23:40:47.717, 1547019647717
51, -159.01, -149.40, -107.99, -253.13, 0.000, 0.000, 0.000, 23:40:47.732, 1547019647732
52, -158.53, -145.79, -105.72, -249.81, 0.000, 0.000, 0.000, 23:40:47.732, 1547019647732
53, -156.73, -147.67, -80.36, -235.60, 0.000, 0.000, 0.000, 23:40:47.733, 1547019647733
54, -152.86, -138.36, -86.76, -238.95, 0.000, 0.000, 0.000, 23:40:47.733, 1547019647733
55, -151.30, -144.36, -98.68, -252.43, 0.000, 0.000, 0.000, 23:40:47.747, 1547019647747
56, -161.40, -150.14, -113.72, -257.52, 0.000, 0.000, 0.000, 23:40:47.747, 1547019647747
57, -161.56, -156.34, -130.99, -276.59, 0.000, 0.000, 0.000, 23:40:47.762, 1547019647762
58, -149.33, -147.22, -105.67, -257.43, 0.000, 0.000, 0.000, 23:40:47.762, 1547019647762
59, -148.34, -138.49, -86.29, -239.77, 0.000, 0.000, 0.000, 23:40:47.764, 1547019647764
60, -156.68, -143.42, -104.31, -261.37, 0.000, 0.000, 0.000, 23:40:47.764, 1547019647764
61, -156.95, -149.10, -97.59, -249.34, 0.000, 0.000, 0.000, 23:40:47.777, 1547019647777
62, -157.07, -140.41, -87.79, -245.04, 0.000, 0.000, 0.000, 23:40:47.777, 1547019647777
63, -155.15, -141.91, -99.01, -247.90, 0.000, 0.000, 0.000, 23:40:47.792, 1547019647792
64, -162.56, -149.35, -112.97, -260.66, 0.000, 0.000, 0.000, 23:40:47.792, 1547019647792
65, -164.41, -154.28, -91.13, -253.47, 0.000, 0.000, 0.000, 23:40:47.793, 1547019647793
66, -151.96, -146.05, -90.30, -253.91, 0.000, 0.000, 0.000, 23:40:47.793, 1547019647793
67, -154.00, -142.82, -95.94, -247.94, 0.000, 0.000, 0.000, 23:40:47.807, 1547019647807
68, -156.84, -148.34, -117.37, -259.63, 0.000, 0.000, 0.000, 23:40:47.807, 1547019647807
69, -156.93, -145.16, -114.14, -249.74, 0.000, 0.000, 0.000, 23:40:47.822, 1547019647822
70, -138.83, -131.46, -92.59, -245.63, 0.000, 0.000, 0.000, 23:40:47.822, 1547019647822
71, -145.97, -132.29, -107.99, -262.46, 0.000, 0.000, 0.000, 23:40:47.823, 1547019647823
72, -143.98, -129.70, -97.68, -252.24, 0.000, 0.000, 0.000, 23:40:47.823, 1547019647823
73, -142.28, -138.76, -85.48, -245.33, 0.000, 0.000, 0.000, 23:40:47.837, 1547019647837
74, -139.53, -135.74, -92.15, -246.15, 0.000, 0.000, 0.000, 23:40:47.837, 1547019647837
75, -146.36, -138.40, -96.02, -246.36, 0.000, 0.000, 0.000, 23:40:47.852, 1547019647852
76, -155.11, -143.99, -114.32, -246.59, 0.000, 0.000, 0.000, 23:40:47.852, 1547019647852
77, -160.69, -148.94, -106.75, -247.84, 0.000, 0.000, 0.000, 23:40:47.853, 1547019647853
78, -148.35, -140.26, -99.90, -247.08, 0.000, 0.000, 0.000, 23:40:47.853, 1547019647853
79, -149.47, -145.07, -89.77, -237.07, 0.000, 0.000, 0.000, 23:40:47.867, 1547019647867
80, -155.44, -145.42, -107.78, -254.34, 0.000, 0.000, 0.000, 23:40:47.867, 1547019647867
81, -156.92, -152.66, -99.90, -249.34, 0.000, 0.000, 0.000, 23:40:47.882, 1547019647882
82, -148.02, -138.76, -104.72, -262.68, 0.000, 0.000, 0.000, 23:40:47.882, 1547019647882
83, -130.75, -126.69, -89.84, -236.82, 0.000, 0.000, 0.000, 23:40:47.883, 1547019647883
84, -141.10, -128.33, -101.59, -236.88, 0.000, 0.000, 0.000, 23:40:47.883, 1547019647883
85, -152.11, -142.34, -94.78, -243.72, 0.000, 0.000, 0.000, 23:40:47.897, 1547019647897
86, -140.59, -131.07, -83.95, -245.37, 0.000, 0.000, 0.000, 23:40:47.897, 1547019647897
87, -146.76, -136.03, -87.88, -249.79, 0.000, 0.000, 0.000, 23:40:47.913, 1547019647913
88, -151.87, -137.89, -107.17, -255.06, 0.000, 0.000, 0.000, 23:40:47.913, 1547019647913
89, -154.56, -146.26, -96.86, -249.57, 0.000, 0.000, 0.000, 23:40:47.914, 1547019647914
90, -144.72, -132.48, -88.20, -247.04, 0.000, 0.000, 0.000, 23:40:47.914, 1547019647914
91, -147.52, -135.65, -90.99, -246.00, 0.000, 0.000, 0.000, 23:40:47.928, 1547019647928
92, -151.03, -137.21, -114.40, -258.24, 0.000, 0.000, 0.000, 23:40:47.928, 1547019647928
93, -170.17, -150.61, -99.50, -249.42, 0.000, 0.000, 0.000, 23:40:47.942, 1547019647942
94, -156.77, -151.59, -101.49, -249.33, 0.000, 0.000, 0.000, 23:40:47.942, 1547019647942
95, -119.13, -114.95, -105.77, -251.96, 0.000, 0.000, 0.000, 23:40:47.943, 1547019647943
96, -137.93, -122.00, -102.86, -246.20, 0.000, 0.000, 0.000, 23:40:47.943, 1547019647943
97, -140.48, -130.45, -96.00, -238.42, 0.000, 0.000, 0.000, 23:40:47.957, 1547019647957
98, -122.49, -112.78, -99.37, -246.18, 0.000, 0.000, 0.000, 23:40:47.957, 1547019647957
99, -119.86, -112.07, -99.26, -254.88, 0.000, 0.000, 0.000, 23:40:47.972, 1547019647972
100, -127.35, -111.20, -109.20, -257.90, 0.000, 0.000, 0.000, 23:40:47.972, 1547019647972
101, -139.86, -124.88, -102.91, -260.08, 0.000, 0.000, 0.000, 23:40:47.973, 1547019647973
102, -136.24, -125.52, -77.82, -238.52, 0.000, 0.000, 0.000, 23:40:47.973, 1547019647973
103, -137.44, -124.52, -64.46, -237.03, 0.000, 0.000, 0.000, 23:40:47.987, 1547019647987
104, -145.12, -135.54, -101.81, -243.45, 0.000, 0.000, 0.000, 23:40:47.987, 1547019647987
105, -150.13, -135.62, -108.28, -253.80, 0.000, 0.000, 0.000, 23:40:48.002, 1547019648002
106, -133.53, -133.39, -83.99, -224.62, 0.000, 0.000, 0.000, 23:40:48.002, 1547019648002
107, -134.68, -132.06, -83.68, -251.19, 0.000, 0.000, 0.000, 23:40:48.003, 1547019648003
108, -143.23, -129.93, -92.29, -247.78, 0.000, 0.000, 0.000, 23:40:48.003, 1547019648003
109, -151.96, -138.92, -110.32, -259.74, 0.000, 0.000, 0.000, 23:40:48.017, 1547019648017
110, -150.80, -140.84, -103.17, -249.56, 0.000, 0.000, 0.000, 23:40:48.017, 1547019648017
111, -149.27, -141.37, -101.87, -254.06, 0.000, 0.000, 0.000, 23:40:48.032, 1547019648032
112, -149.35, -138.16, -106.96, -253.64, 0.000, 0.000, 0.000, 23:40:48.032, 1547019648032
113, -156.95, -147.16, -107.05, -251.20, 0.000, 0.000, 0.000, 23:40:48.039, 1547019648039
114, -157.04, -146.39, -94.03, -255.06, 0.000, 0.000, 0.000, 23:40:48.039, 1547019648039
115, -139.68, -131.50, -77.88, -241.25, 0.000, 0.000, 0.000, 23:40:48.047, 1547019648047
116, -145.64, -137.58, -100.79, -240.07, 0.000, 0.000, 0.000, 23:40:48.047, 1547019648047
117, -157.85, -148.35, -101.36, -239.98, 0.000, 0.000, 0.000, 23:40:48.063, 1547019648063
118, -146.35, -136.31, -76.31, -242.03, 0.000, 0.000, 0.000, 23:40:48.063, 1547019648063
119, -147.68, -136.67, -96.54, -242.64, 0.000, 0.000, 0.000, 23:40:48.064, 1547019648064
120, -151.10, -135.80, -98.82, -255.10, 0.000, 0.000, 0.000, 23:40:48.064, 1547019648064
121, -158.95, -148.95, -122.83, -251.05, 0.000, 0.000, 0.000, 23:40:48.078, 1547019648078
122, -146.71, -132.67, -99.79, -247.21, 0.000, 0.000, 0.000, 23:40:48.078, 1547019648078
123, -136.39, -128.21, -95.02, -249.72, 0.000, 0.000, 0.000, 23:40:48.092, 1547019648092
124, -145.34, -134.26, -101.50, -245.26, 0.000, 0.000, 0.000, 23:40:48.092, 1547019648092
125, -150.40, -140.60, -101.65, -257.67, 0.000, 0.000, 0.000, 23:40:48.093, 1547019648093
126, -140.99, -128.68, -74.28, -234.40, 0.000, 0.000, 0.000, 23:40:48.093, 1547019648093
127, -150.40, -140.89, -110.92, -269.84, 0.000, 0.000, 0.000, 23:40:48.107, 1547019648107
128, -151.93, -140.90, -111.06, -265.50, 0.000, 0.000, 0.000, 23:40:48.107, 1547019648107
129, -150.18, -138.91, -93.81, -243.97, 0.000, 0.000, 0.000, 23:40:48.123, 1547019648123
130, -148.57, -134.54, -89.03, -251.60, 0.000, 0.000, 0.000, 23:40:48.123, 1547019648123
131, -146.16, -135.10, -109.38, -261.83, 0.000, 0.000, 0.000, 23:40:48.123, 1547019648123
132, -149.55, -138.48, -114.45, -265.36, 0.000, 0.000, 0.000, 23:40:48.123, 1547019648123
133, -148.60, -137.90, -90.25, -248.20, 0.000, 0.000, 0.000, 23:40:48.137, 1547019648137
134, -141.48, -136.35, -83.31, -240.13, 0.000, 0.000, 0.000, 23:40:48.137, 1547019648137
135, -148.82, -141.96, -113.08, -261.06, 0.000, 0.000, 0.000, 23:40:48.152, 1547019648152
136, -156.87, -143.89, -114.42, -260.61, 0.000, 0.000, 0.000, 23:40:48.152, 1547019648152
137, -166.35, -153.74, -106.06, -255.13, 0.000, 0.000, 0.000, 23:40:48.153, 1547019648153
138, -154.16, -138.75, -82.92, -243.53, 0.000, 0.000, 0.000, 23:40:48.153, 1547019648153
139, -144.97, -134.60, -80.21, -246.28, 0.000, 0.000, 0.000, 23:40:48.167, 1547019648167
140, -156.89, -142.36, -126.62, -274.08, 0.000, 0.000, 0.000, 23:40:48.167, 1547019648167
141, -158.51, -142.88, -104.45, -264.56, 0.000, 0.000, 0.000, 23:40:48.182, 1547019648182
142, -152.93, -142.79, -96.99, -255.00, 0.000, 0.000, 0.000, 23:40:48.182, 1547019648182
143, -134.97, -129.34, -77.18, -228.12, 0.000, 0.000, 0.000, 23:40:48.183, 1547019648183
144, -156.81, -148.88, -90.71, -248.67, 0.000, 0.000, 0.000, 23:40:48.183, 1547019648183
145, -159.01, -148.82, -115.95, -262.78, 0.000, 0.000, 0.000, 23:40:48.198, 1547019648198
146, -141.13, -133.82, -108.24, -253.10, 0.000, 0.000, 0.000, 23:40:48.198, 1547019648198
147, -144.75, -130.77, -98.56, -258.83, 0.000, 0.000, 0.000, 23:40:48.213, 1547019648213
148, -150.49, -143.01, -106.59, -263.72, 0.000, 0.000, 0.000, 23:40:48.213, 1547019648213
149, -155.16, -139.97, -109.18, -250.09, 0.000, 0.000, 0.000, 23:40:48.214, 1547019648214
150, -148.95, -137.72, -104.06, -252.10, 0.000, 0.000, 0.000, 23:40:48.214, 1547019648214
151, -155.69, -146.22, -132.11, -270.69, 0.000, 0.000, 0.000, 23:40:48.227, 1547019648227
152, -147.99, -136.15, -97.97, -244.05, 0.000, 0.000, 0.000, 23:40:48.227, 1547019648227
153, -144.73, -134.94, -88.16, -234.63, 0.000, 0.000, 0.000, 23:40:48.242, 1547019648242
154, -146.46, -136.66, -86.99, -242.34, 0.000, 0.000, 0.000, 23:40:48.242, 1547019648242
155, -144.66, -137.05, -107.19, -262.71, 0.000, 0.000, 0.000, 23:40:48.243, 1547019648243
156, -156.35, -147.60, -112.00, -262.39, 0.000, 0.000, 0.000, 23:40:48.243, 1547019648243
157, -154.89, -141.34, -103.61, -247.86, 0.000, 0.000, 0.000, 23:40:48.257, 1547019648257
158, -146.46, -142.02, -91.64, -246.71, 0.000, 0.000, 0.000, 23:40:48.257, 1547019648257
159, -161.77, -147.46, -94.67, -250.42, 0.000, 0.000, 0.000, 23:40:48.272, 1547019648272
160, -155.77, -138.98, -90.25, -241.66, 0.000, 0.000, 0.000, 23:40:48.272, 1547019648272
161, -149.37, -140.81, -94.42, -241.15, 0.000, 0.000, 0.000, 23:40:48.273, 1547019648273
162, -151.43, -138.76, -94.14, -252.51, 0.000, 0.000, 0.000, 23:40:48.273, 1547019648273
163, -148.00, -137.97, -79.41, -247.23, 0.000, 0.000, 0.000, 23:40:48.287, 1547019648287
164, -156.14, -138.76, -104.24, -257.29, 0.000, 0.000, 0.000, 23:40:48.287, 1547019648287
165, -156.13, -146.61, -108.14, -248.77, 0.000, 0.000, 0.000, 23:40:48.302, 1547019648302
166, -146.81, -141.61, -88.26, -239.88, 0.000, 0.000, 0.000, 23:40:48.302, 1547019648302
167, -150.96, -142.20, -109.96, -258.52, 0.000, 0.000, 0.000, 23:40:48.303, 1547019648303
168, -151.55, -141.40, -111.28, -244.24, 0.000, 0.000, 0.000, 23:40:48.303, 1547019648303
169, -154.78, -146.76, -101.69, -244.41, 0.000, 0.000, 0.000, 23:40:48.317, 1547019648317
170, -148.94, -142.24, -94.07, -234.16, 0.000, 0.000, 0.000, 23:40:48.317, 1547019648317
171, -149.70, -143.86, -101.59, -254.70, 0.000, 0.000, 0.000, 23:40:48.332, 1547019648332
172, -161.04, -149.69, -119.36, -268.49, 0.000, 0.000, 0.000, 23:40:48.332, 1547019648332
173, -153.54, -147.08, -102.57, -249.54, 0.000, 0.000, 0.000, 23:40:48.333, 1547019648333
174, -145.32, -141.17, -90.61, -231.68, 0.000, 0.000, 0.000, 23:40:48.333, 1547019648333
175, -149.38, -143.63, -90.06, -244.28, 0.000, 0.000, 0.000, 23:40:48.347, 1547019648347
176, -155.44, -148.36, -108.61, -253.14, 0.000, 0.000, 0.000, 23:40:48.347, 1547019648347
177, -159.61, -149.25, -105.14, -257.35, 0.000, 0.000, 0.000, 23:40:48.362, 1547019648362
178, -148.95, -140.95, -89.88, -250.06, 0.000, 0.000, 0.000, 23:40:48.362, 1547019648362
179, -138.43, -129.67, -86.89, -245.03, 0.000, 0.000, 0.000, 23:40:48.363, 1547019648363
180, -150.88, -134.92, -116.23, -257.77, 0.000, 0.000, 0.000, 23:40:48.363, 1547019648363
181, -159.99, -143.18, -105.87, -267.20, 0.000, 0.000, 0.000, 23:40:48.378, 1547019648378
182, -143.18, -141.07, -91.49, -248.29, 0.000, 0.000, 0.000, 23:40:48.378, 1547019648378
183, -145.38, -139.59, -95.53, -259.21, 0.000, 0.000, 0.000, 23:40:48.392, 1547019648392
184, -139.64, -131.39, -99.64, -252.93, 0.000, 0.000, 0.000, 23:40:48.392, 1547019648392
185, -147.17, -142.12, -105.69, -257.01, 0.000, 0.000, 0.000, 23:40:48.393, 1547019648393
186, -139.73, -134.45, -114.38, -250.89, 0.000, 0.000, 0.000, 23:40:48.393, 1547019648393
187, -148.77, -136.02, -103.97, -257.04, 0.000, 0.000, 0.000, 23:40:48.407, 1547019648407
188, -147.78, -135.12, -104.17, -257.57, 0.000, 0.000, 0.000, 23:40:48.407, 1547019648407
189, -150.55, -141.12, -100.43, -248.87, 0.000, 0.000, 0.000, 23:40:48.422, 1547019648422
190, -151.55, -135.98, -92.89, -245.03, 0.000, 0.000, 0.000, 23:40:48.422, 1547019648422
191, -148.89, -136.00, -103.77, -264.32, 0.000, 0.000, 0.000, 23:40:48.423, 1547019648423
192, -155.11, -137.34, -106.36, -257.04, 0.000, 0.000, 0.000, 23:40:48.423, 1547019648423
193, -149.72, -136.18, -100.56, -265.03, 0.000, 0.000, 0.000, 23:40:48.437, 1547019648437
194, -141.53, -129.11, -88.60, -251.54, 0.000, 0.000, 0.000, 23:40:48.437, 1547019648437
195, -142.70, -133.24, -97.08, -251.38, 0.000, 0.000, 0.000, 23:40:48.452, 1547019648452
196, -154.08, -139.83, -119.17, -264.75, 0.000, 0.000, 0.000, 23:40:48.452, 1547019648452
197, -159.76, -145.23, -121.79, -266.34, 0.000, 0.000, 0.000, 23:40:48.453, 1547019648453
198, -151.20, -139.26, -96.57, -252.69, 0.000, 0.000, 0.000, 23:40:48.453, 1547019648453
199, -144.87, -135.17, -96.43, -253.74, 0.000, 0.000, 0.000, 23:40:48.467, 1547019648467
200, -150.80, -134.46, -109.60, -244.55, 0.000, 0.000, 0.000, 23:40:48.467, 1547019648467
0, -150.90, -141.23, -103.94, -257.16, 0.000, 0.000, 0.000, 23:40:48.468, 1547019648468
1, -137.37, -134.83, -93.80, -248.49, 0.000, 0.000, 0.000, 23:40:48.483, 1547019648483
2, -142.62, -133.05, -97.72, -242.07, 0.000, 0.000, 0.000, 23:40:48.483, 1547019648483
3, -175.52, -152.28, -89.35, -232.20, 0.000, 0.000, 0.000, 23:40:48.497, 1547019648497
4, -146.15, -143.30, -102.55, -264.14, 0.000, 0.000, 0.000, 23:40:48.497, 1547019648497
5, -128.54, -123.33, -97.88, -259.31, 0.000, 0.000, 0.000, 23:40:48.498, 1547019648498
6, -125.21, -122.16, -83.72, -242.79, 0.000, 0.000, 0.000, 23:40:48.498, 1547019648498
7, -141.97, -134.87, -104.64, -257.34, 0.000, 0.000, 0.000, 23:40:48.512, 1547019648512
8, -132.92, -129.17, -115.23, -268.32, 0.000, 0.000, 0.000, 23:40:48.512, 1547019648512
9, -129.07, -124.78, -98.09, -246.96, 0.000, 0.000, 0.000, 23:40:48.527, 1547019648527
10, -131.97, -128.71, -85.74, -246.04, 0.000, 0.000, 0.000, 23:40:48.527, 1547019648527
11, -144.83, -128.23, -100.79, -253.45, 0.000, 0.000, 0.000, 23:40:48.528, 1547019648528
12, -149.69, -136.74, -101.01, -252.51, 0.000, 0.000, 0.000, 23:40:48.528, 1547019648528
13, -146.14, -137.83, -98.27, -252.16, 0.000, 0.000, 0.000, 23:40:48.542, 1547019648542
14, -141.64, -131.74, -83.42, -232.60, 0.000, 0.000, 0.000, 23:40:48.542, 1547019648542
15, -157.01, -146.85, -121.45, -270.72, 0.000, 0.000, 0.000, 23:40:48.557, 1547019648557
16, -162.51, -149.17, -100.69, -261.34, 0.000, 0.000, 0.000, 23:40:48.557, 1547019648557
17, -155.40, -143.81, -88.66, -255.76, 0.000, 0.000, 0.000, 23:40:48.558, 1547019648558
18, -141.75, -136.67, -98.07, -252.16, 0.000, 0.000, 0.000, 23:40:48.558, 1547019648558
19, -148.49, -135.46, -97.79, -245.55, 0.000, 0.000, 0.000, 23:40:48.572, 1547019648572
20, -144.38, -136.20, -75.91, -232.63, 0.000, 0.000, 0.000, 23:40:48.572, 1547019648572
21, -140.60, -131.58, -72.76, -224.07, 0.000, 0.000, 0.000, 23:40:48.588, 1547019648588
22, -151.43, -136.76, -114.23, -259.83, 0.000, 0.000, 0.000, 23:40:48.588, 1547019648588
23, -159.46, -148.84, -103.86, -267.15, 0.000, 0.000, 0.000, 23:40:48.588, 1547019648588
24, -160.61, -153.32, -89.80, -249.45, 0.000, 0.000, 0.000, 23:40:48.588, 1547019648588
25, -133.28, -127.04, -62.82, -212.00, 0.000, 0.000, 0.000, 23:40:48.602, 1547019648602
26, -140.58, -131.11, -77.72, -236.65, 0.000, 0.000, 0.000, 23:40:48.602, 1547019648602
27, -150.44, -139.19, -95.34, -253.00, 0.000, 0.000, 0.000, 23:40:48.617, 1547019648617
28, -155.09, -142.15, -95.60, -247.49, 0.000, 0.000, 0.000, 23:40:48.617, 1547019648617
29, -148.24, -139.25, -92.53, -253.33, 0.000, 0.000, 0.000, 23:40:48.618, 1547019648618
30, -144.51, -135.37, -96.49, -261.54, 0.000, 0.000, 0.000, 23:40:48.618, 1547019648618
31, -144.77, -134.41, -91.91, -261.44, 0.000, 0.000, 0.000, 23:40:48.632, 1547019648632
32, -151.42, -140.64, -93.14, -250.21, 0.000, 0.000, 0.000, 23:40:48.632, 1547019648632
33, -139.15, -134.33, -94.77, -248.45, 0.000, 0.000, 0.000, 23:40:48.647, 1547019648647
34, -140.48, -128.95, -96.17, -256.71, 0.000, 0.000, 0.000, 23:40:48.647, 1547019648647
35, -140.80, -131.11, -95.35, -245.42, 0.000, 0.000, 0.000, 23:40:48.649, 1547019648649
36, -153.18, -145.32, -88.23, -245.72, 0.000, 0.000, 0.000, 23:40:48.649, 1547019648649
37, -147.25, -142.45, -69.07, -239.30, 0.000, 0.000, 0.000, 23:40:48.662, 1547019648662
38, -150.08, -139.35, -104.31, -242.23, 0.000, 0.000, 0.000, 23:40:48.662, 1547019648662
39, -160.61, -145.96, -123.42, -267.90, 0.000, 0.000, 0.000, 23:40:48.678, 1547019648678
40, -161.96, -152.90, -111.93, -259.37, 0.000, 0.000, 0.000, 23:40:48.678, 1547019648678
41, -147.57, -140.65, -77.49, -241.88, 0.000, 0.000, 0.000, 23:40:48.678, 1547019648678
42, -140.18, -131.28, -98.37, -252.52, 0.000, 0.000, 0.000, 23:40:48.678, 1547019648678
43, -152.67, -138.88, -114.23, -261.72, 0.000, 0.000, 0.000, 23:40:48.693, 1547019648693
44, -161.76, -151.35, -110.46, -262.98, 0.000, 0.000, 0.000, 23:40:48.693, 1547019648693
45, -153.31, -146.29, -106.60, -256.56, 0.000, 0.000, 0.000, 23:40:48.707, 1547019648707
46, -148.45, -138.55, -91.27, -245.81, 0.000, 0.000, 0.000, 23:40:48.707, 1547019648707
47, -142.16, -128.85, -92.89, -233.78, 0.000, 0.000, 0.000, 23:40:48.714, 1547019648714
48, -158.43, -148.46, -106.82, -247.29, 0.000, 0.000, 0.000, 23:40:48.714, 1547019648714
49, -152.35, -147.45, -104.16, -244.74, 0.000, 0.000, 0.000, 23:40:48.723, 1547019648723
50, -141.86, -137.96, -91.08, -244.66, 0.000, 0.000, 0.000, 23:40:48.723, 1547019648723
51, -153.48, -145.05, -108.31, -255.05, 0.000, 0.000, 0.000, 23:40:48.737, 1547019648737
52, -162.30, -153.97, -102.02, -264.11, 0.000, 0.000, 0.000, 23:40:48.737, 1547019648737
53, -145.36, -138.63, -92.93, -259.62, 0.000, 0.000, 0.000, 23:40:48.738, 1547019648738
54, -148.50, -138.57, -87.21, -253.44, 0.000, 0.000, 0.000, 23:40:48.738, 1547019648738
55, -155.22, -142.44, -118.82, -259.35, 0.000, 0.000, 0.000, 23:40:48.752, 1547019648752
56, -160.73, -146.07, -103.41, -258.60, 0.000, 0.000, 0.000, 23:40:48.752, 1547019648752
57, -158.06, -144.53, -121.94, -259.23, 0.000, 0.000, 0.000, 23:40:48.767, 1547019648767
58, -155.60, -143.30, -117.84, -262.54, 0.000, 0.000, 0.000, 23:40:48.767, 1547019648767
59, -154.09, -132.66, -100.69, -249.92, 0.000, 0.000, 0.000, 23:40:48.768, 1547019648768
60, -159.33, -146.22, -112.17, -256.28, 0.000, 0.000, 0.000, 23:40:48.768, 1547019648768
61, -148.50, -140.75, -94.74, -245.39, 0.000, 0.000, 0.000, 23:40:48.783, 1547019648783
62, -140.67, -130.48, -93.01, -233.63, 0.000, 0.000, 0.000, 23:40:48.783, 1547019648783
63, -149.99, -141.68, -111.28, -270.61, 0.000, 0.000, 0.000, 23:40:48.797, 1547019648797
64, -159.04, -149.18, -102.95, -258.75, 0.000, 0.000, 0.000, 23:40:48.797, 1547019648797
65, -154.19, -144.57, -114.03, -256.07, 0.000, 0.000, 0.000, 23:40:48.798, 1547019648798
66, -144.68, -129.72, -92.62, -248.90, 0.000, 0.000, 0.000, 23:40:48.798, 1547019648798
67, -149.10, -135.49, -101.49, -254.85, 0.000, 0.000, 0.000, 23:40:48.812, 1547019648812
68, -160.14, -150.86, -116.01, -263.75, 0.000, 0.000, 0.000, 23:40:48.812, 1547019648812
69, -149.48, -142.85, -107.74, -261.24, 0.000, 0.000, 0.000, 23:40:48.827, 1547019648827
70, -156.90, -145.33, -129.34, -272.82, 0.000, 0.000, 0.000, 23:40:48.827, 1547019648827
71, -144.00, -130.89, -105.16, -250.08, 0.000, 0.000, 0.000, 23:40:48.828, 1547019648828
72, -145.37, -138.27, -99.92, -253.49, 0.000, 0.000, 0.000, 23:40:48.828, 1547019648828
73, -137.51, -132.82, -83.15, -241.32, 0.000, 0.000, 0.000, 23:40:48.842, 1547019648842
74, -149.52, -137.98, -104.73, -249.77, 0.000, 0.000, 0.000, 23:40:48.842, 1547019648842
75, -154.22, -140.50, -122.52, -251.03, 0.000, 0.000, 0.000, 23:40:48.857, 1547019648857
76, -152.71, -143.25, -98.28, -249.13, 0.000, 0.000, 0.000, 23:40:48.857, 1547019648857
77, -149.57, -138.98, -97.86, -265.60, 0.000, 0.000, 0.000, 23:40:48.858, 1547019648858
78, -142.38, -133.72, -72.62, -240.01, 0.000, 0.000, 0.000, 23:40:48.858, 1547019648858
79, -140.72, -131.57, -103.57, -237.81, 0.000, 0.000, 0.000, 23:40:48.872, 1547019648872
80, -158.17, -147.12, -121.36, -271.81, 0.000, 0.000, 0.000, 23:40:48.872, 1547019648872
81, -152.11, -143.57, -103.65, -257.25, 0.000, 0.000, 0.000, 23:40:48.888, 1547019648888
82, -154.01, -139.84, -126.92, -264.55, 0.000, 0.000, 0.000, 23:40:48.888, 1547019648888
83, -149.93, -131.82, -107.22, -242.95, 0.000, 0.000, 0.000, 23:40:48.889, 1547019648889
84, -157.40, -146.60, -121.61, -257.78, 0.000, 0.000, 0.000, 23:40:48.889, 1547019648889
85, -156.05, -142.10, -111.53, -266.31, 0.000, 0.000, 0.000, 23:40:48.902, 1547019648902
86, -152.46, -141.10, -100.00, -253.10, 0.000, 0.000, 0.000, 23:40:48.902, 1547019648902
87, -149.41, -132.86, -110.54, -258.18, 0.000, 0.000, 0.000, 23:40:48.917, 1547019648917
88, -159.20, -144.83, -115.56, -260.86, 0.000, 0.000, 0.000, 23:40:48.917, 1547019648917
89, -142.00, -129.58, -89.67, -242.78, 0.000, 0.000, 0.000, 23:40:48.918, 1547019648918
90, -141.98, -134.72, -97.55, -246.74, 0.000, 0.000, 0.000, 23:40:48.918, 1547019648918
91, -150.17, -140.22, -117.99, -257.60, 0.000, 0.000, 0.000, 23:40:48.933, 1547019648933
92, -154.54, -139.49, -91.50, -240.60, 0.000, 0.000, 0.000, 23:40:48.933, 1547019648933
93, -147.33, -136.33, -88.68, -238.59, 0.000, 0.000, 0.000, 23:40:48.947, 1547019648947
94, -144.92, -131.12, -101.94, -251.26, 0.000, 0.000, 0.000, 23:40:48.947, 1547019648947
95, -148.03, -128.15, -116.17, -256.86, 0.000, 0.000, 0.000, 23:40:48.948, 1547019648948
96, -157.21, -141.12, -117.13, -257.44, 0.000, 0.000, 0.000, 23:40:48.948, 1547019648948
97, -147.55, -137.29, -96.77, -251.53, 0.000, 0.000, 0.000, 23:40:48.962, 1547019648962
98, -149.17, -136.39, -100.10, -254.00, 0.000, 0.000, 0.000, 23:40:48.962, 1547019648962
99, -145.25, -127.21, -120.98, -257.82, 0.000, 0.000, 0.000, 23:40:48.978, 1547019648978
100, -153.91, -138.07, -108.52, -265.15, 0.000, 0.000, 0.000, 23:40:48.978, 1547019648978
101, -143.97, -132.80, -97.82, -259.51, 0.000, 0.000, 0.000, 23:40:48.978, 1547019648978
102, -149.32, -124.42, -104.29, -261.23, 0.000, 0.000, 0.000, 23:40:48.978, 1547019648978
103, -141.53, -120.45, -102.32, -254.43, 0.000, 0.000, 0.000, 23:40:48.992, 1547019648992
104, -160.28, -142.13, -113.74, -265.86, 0.000, 0.000, 0.000, 23:40:48.992, 1547019648992
105, -150.82, -140.81, -100.58, -249.48, 0.000, 0.000, 0.000, 23:40:49.007, 1547019649007
106, -155.61, -144.51, -110.38, -255.01, 0.000, 0.000, 0.000, 23:40:49.007, 1547019649007
107, -155.73, -139.83, -110.38, -258.56, 0.000, 0.000, 0.000, 23:40:49.008, 1547019649008
108, -163.29, -150.36, -119.03, -279.32, 0.000, 0.000, 0.000, 23:40:49.008, 1547019649008
109, -155.42, -144.31, -98.29, -257.87, 0.000, 0.000, 0.000, 23:40:49.022, 1547019649022
110, -131.03, -122.83, -74.16, -243.02, 0.000, 0.000, 0.000, 23:40:49.022, 1547019649022
111, -139.97, -126.22, -96.19, -260.53, 0.000, 0.000, 0.000, 23:40:49.037, 1547019649037
112, -148.42, -139.11, -104.49, -254.93, 0.000, 0.000, 0.000, 23:40:49.037, 1547019649037
113, -150.87, -142.74, -88.72, -239.33, 0.000, 0.000, 0.000, 23:40:49.038, 1547019649038
114, -147.50, -138.68, -104.95, -266.31, 0.000, 0.000, 0.000, 23:40:49.038, 1547019649038
115, -155.12, -140.61, -100.14, -270.87, 0.000, 0.000, 0.000, 23:40:49.052, 1547019649052
116, -157.62, -144.20, -104.58, -276.17, 0.000, 0.000, 0.000, 23:40:49.052, 1547019649052
117, -143.66, -132.54, -74.21, -247.37, 0.000, 0.000, 0.000, 23:40:49.067, 1547019649067
118, -141.41, -138.04, -101.05, -255.88, 0.000, 0.000, 0.000, 23:40:49.067, 1547019649067
119, -149.81, -143.23, -108.23, -243.03, 0.000, 0.000, 0.000, 23:40:49.068, 1547019649068
120, -139.34, -144.82, -118.78, -250.85, 0.000, 0.000, 0.000, 23:40:49.068, 1547019649068
121, -130.61, -143.60, -105.63, -247.75, 0.000, 0.000, 0.000, 23:40:49.082, 1547019649082
122, -132.28, -141.41, -91.35, -237.11, 0.000, 0.000, 0.000, 23:40:49.082, 1547019649082
123, -142.70, -136.12, -95.77, -253.26, 0.000, 0.000, 0.000, 23:40:49.097, 1547019649097
124, -143.05, -129.73, -76.08, -239.72, 0.000, 0.000, 0.000, 23:40:49.097, 1547019649097
125, -145.89, -138.99, -99.35, -250.35, 0.000, 0.000, 0.000, 23:40:49.098, 1547019649098
126, -148.86, -141.51, -105.61, -256.17, 0.000, 0.000, 0.000, 23:40:49.098, 1547019649098
127, -146.41, -133.51, -104.40, -251.63, 0.000, 0.000, 0.000, 23:40:49.112, 1547019649112
128, -143.23, -135.36, -85.18, -245.64, 0.000, 0.000, 0.000, 23:40:49.112, 1547019649112
129, -140.13, -138.02, -82.86, -237.52, 0.000, 0.000, 0.000, 23:40:49.127, 1547019649127
130, -160.88, -153.54, -98.88, -253.63, 0.000, 0.000, 0.000, 23:40:49.127, 1547019649127
131, -145.26, -125.37, -122.31, -264.02, 0.000, 0.000, 0.000, 23:40:49.128, 1547019649128
132, -141.30, -135.11, -98.58, -262.16, 0.000, 0.000, 0.000, 23:40:49.128, 1547019649128
133, -131.90, -120.36, -52.97, -230.21, 0.000, 0.000, 0.000, 23:40:49.149, 1547019649149
134, -142.23, -131.38, -106.66, -258.24, 0.000, 0.000, 0.000, 23:40:49.149, 1547019649149
135, -156.71, -136.38, -149.25, -276.88, 0.000, 0.000, 0.000, 23:40:49.157, 1547019649157
136, -172.80, -152.91, -137.37, -275.97, 0.000, 0.000, 0.000, 23:40:49.157, 1547019649157
137, -153.52, -143.55, -114.87, -266.05, 0.000, 0.000, 0.000, 23:40:49.158, 1547019649158
138, -136.43, -123.55, -107.62, -251.89, 0.000, 0.000, 0.000, 23:40:49.158, 1547019649158
139, -138.60, -121.43, -106.67, -251.62, 0.000, 0.000, 0.000, 23:40:49.172, 1547019649172
140, -155.09, -140.43, -96.19, -232.43, 0.000, 0.000, 0.000, 23:40:49.172, 1547019649172
141, -154.70, -142.94, -118.39, -271.02, 0.000, 0.000, 0.000, 23:40:49.187, 1547019649187
142, -157.68, -147.01, -114.54, -263.14, 0.000, 0.000, 0.000, 23:40:49.187, 1547019649187
143, -157.85, -141.89, -129.47, -269.93, 0.000, 0.000, 0.000, 23:40:49.188, 1547019649188
144, -141.56, -131.85, -86.25, -243.75, 0.000, 0.000, 0.000, 23:40:49.188, 1547019649188
145, -145.17, -136.66, -78.06, -248.14, 0.000, 0.000, 0.000, 23:40:49.202, 1547019649202
146, -139.86, -129.53, -68.93, -239.89, 0.000, 0.000, 0.000, 23:40:49.202, 1547019649202
147, -164.14, -146.64, -115.42, -259.04, 0.000, 0.000, 0.000, 23:40:49.217, 1547019649217
148, -159.66, -149.49, -113.74, -253.62, 0.000, 0.000, 0.000, 23:40:49.217, 1547019649217
149, -149.38, -142.37, -108.27, -255.84, 0.000, 0.000, 0.000, 23:40:49.218, 1547019649218
150, -149.38, -143.61, -112.27, -259.54, 0.000, 0.000, 0.000, 23:40:49.218, 1547019649218
151, -153.53, -145.49, -105.36, -262.36, 0.000, 0.000, 0.000, 23:40:49.233, 1547019649233
152, -157.27, -148.38, -100.47, -247.10, 0.000, 0.000, 0.000, 23:40:49.233, 1547019649233
153, -138.19, -134.67, -74.75, -234.09, 0.000, 0.000, 0.000, 23:40:49.247, 1547019649247
154, -141.44, -131.87, -78.36, -236.84, 0.000, 0.000, 0.000, 23:40:49.247, 1547019649247
155, -148.98, -140.28, -109.42, -256.23, 0.000, 0.000, 0.000, 23:40:49.248, 1547019649248
156, -160.13, -152.55, -128.46, -264.03, 0.000, 0.000, 0.000, 23:40:49.248, 1547019649248
157, -161.43, -154.29, -111.83, -265.25, 0.000, 0.000, 0.000, 23:40:49.262, 1547019649262
158, -157.17, -144.47, -98.39, -251.58, 0.000, 0.000, 0.000, 23:40:49.262, 1547019649262
159, -140.47, -133.26, -91.80, -240.30, 0.000, 0.000, 0.000, 23:40:49.278, 1547019649278
160, -144.78, -136.60, -79.89, -231.99, 0.000, 0.000, 0.000, 23:40:49.278, 1547019649278
161, -140.26, -134.32, -52.90, -219.92, 0.000, 0.000, 0.000, 23:40:49.278, 1547019649278
162, -146.96, -134.49, -86.22, -251.29, 0.000, 0.000, 0.000, 23:40:49.278, 1547019649278
163, -144.74, -140.38, -104.29, -260.54, 0.000, 0.000, 0.000, 23:40:49.292, 1547019649292
164, -175.55, -159.88, -127.98, -279.09, 0.000, 0.000, 0.000, 23:40:49.292, 1547019649292
165, -150.07, -144.17, -118.90, -266.40, 0.000, 0.000, 0.000, 23:40:49.307, 1547019649307
166, -140.29, -134.23, -79.45, -237.54, 0.000, 0.000, 0.000, 23:40:49.307, 1547019649307
167, -149.20, -142.06, -117.52, -254.01, 0.000, 0.000, 0.000, 23:40:49.308, 1547019649308
168, -175.59, -163.40, -130.46, -272.75, 0.000, 0.000, 0.000, 23:40:49.308, 1547019649308
169, -161.78, -155.57, -109.41, -273.36, 0.000, 0.000, 0.000, 23:40:49.322, 1547019649322
170, -155.97, -149.00, -105.95, -270.03, 0.000, 0.000, 0.000, 23:40:49.322, 1547019649322
171, -158.15, -147.27, -109.68, -259.48, 0.000, 0.000, 0.000, 23:40:49.337, 1547019649337
172, -161.80, -152.49, -101.55, -259.17, 0.000, 0.000, 0.000, 23:40:49.337, 1547019649337
173, -157.92, -150.60, -110.98, -263.72, 0.000, 0.000, 0.000, 23:40:49.338, 1547019649338
174, -161.28, -150.81, -114.24, -264.61, 0.000, 0.000, 0.000, 23:40:49.338, 1547019649338
175, -165.00, -148.92, -116.08, -265.69, 0.000, 0.000, 0.000, 23:40:49.352, 1547019649352
176, -155.56, -148.09, -107.96, -260.16, 0.000, 0.000, 0.000, 23:40:49.352, 1547019649352
177, -149.51, -142.42, -74.70, -237.43, 0.000, 0.000, 0.000, 23:40:49.367, 1547019649367
178, -153.00, -144.15, -92.99, -246.77, 0.000, 0.000, 0.000, 23:40:49.367, 1547019649367
179, -162.46, -147.79, -107.05, -260.87, 0.000, 0.000, 0.000, 23:40:49.368, 1547019649368
180, -158.96, -144.14, -106.66, -251.38, 0.000, 0.000, 0.000, 23:40:49.368, 1547019649368
181, -148.55, -143.20, -87.64, -238.89, 0.000, 0.000, 0.000, 23:40:49.382, 1547019649382
182, -151.89, -141.86, -87.72, -247.66, 0.000, 0.000, 0.000, 23:40:49.382, 1547019649382
183, -158.04, -147.63, -106.67, -262.69, 0.000, 0.000, 0.000, 23:40:49.397, 1547019649397
184, -156.64, -149.37, -120.79, -267.79, 0.000, 0.000, 0.000, 23:40:49.397, 1547019649397
185, -149.55, -145.46, -103.82, -257.94, 0.000, 0.000, 0.000, 23:40:49.398, 1547019649398
186, -145.50, -138.84, -84.79, -236.69, 0.000, 0.000, 0.000, 23:40:49.398, 1547019649398
187, -152.37, -140.73, -94.52, -245.38, 0.000, 0.000, 0.000, 23:40:49.412, 1547019649412
188, -158.73, -147.28, -114.81, -247.88, 0.000, 0.000, 0.000, 23:40:49.412, 1547019649412
189, -144.88, -137.21, -100.63, -250.33, 0.000, 0.000, 0.000, 23:40:49.427, 1547019649427
190, -148.03, -144.11, -108.95, -258.84, 0.000, 0.000, 0.000, 23:40:49.427, 1547019649427
191, -150.94, -143.75, -103.99, -251.69, 0.000, 0.000, 0.000, 23:40:49.428, 1547019649428
192, -158.19, -148.61, -101.27, -263.47, 0.000, 0.000, 0.000, 23:40:49.428, 1547019649428
193, -143.28, -140.77, -120.42, -273.72, 0.000, 0.000, 0.000, 23:40:49.442, 1547019649442
194, -141.27, -139.26, -112.85, -261.89, 0.000, 0.000, 0.000, 23:40:49.442, 1547019649442
195, -144.34, -136.45, -105.94, -253.93, 0.000, 0.000, 0.000, 23:40:49.457, 1547019649457
196, -166.20, -152.33, -117.95, -268.38, 0.000, 0.000, 0.000, 23:40:49.457, 1547019649457
197, -153.06, -149.64, -106.26, -257.05, 0.000, 0.000, 0.000, 23:40:49.458, 1547019649458
198, -153.52, -140.12, -104.07, -267.17, 0.000, 0.000, 0.000, 23:40:49.458, 1547019649458
199, -142.35, -132.42, -102.69, -251.81, 0.000, 0.000, 0.000, 23:40:49.472, 1547019649472
200, -150.34, -140.35, -96.90, -251.45, 0.000, 0.000, 0.000, 23:40:49.472, 1547019649472
0, -148.33, -138.57, -86.76, -240.29, 0.000, 0.000, 0.000, 23:40:49.473, 1547019649473
1, -145.59, -141.39, -108.29, -248.02, 0.000, 0.000, 0.000, 23:40:49.488, 1547019649488
2, -141.72, -136.26, -102.79, -246.84, 0.000, 0.000, 0.000, 23:40:49.488, 1547019649488
3, -163.57, -155.82, -116.66, -278.68, 0.000, 0.000, 0.000, 23:40:49.502, 1547019649502
4, -141.11, -136.37, -94.86, -251.72, 0.000, 0.000, 0.000, 23:40:49.502, 1547019649502
5, -148.36, -139.68, -105.18, -263.40, 0.000, 0.000, 0.000, 23:40:49.503, 1547019649503
6, -144.22, -133.17, -107.60, -253.57, 0.000, 0.000, 0.000, 23:40:49.503, 1547019649503
7, -159.01, -149.54, -112.68, -255.78, 0.000, 0.000, 0.000, 23:40:49.517, 1547019649517
8, -153.06, -146.66, -90.91, -248.45, 0.000, 0.000, 0.000, 23:40:49.517, 1547019649517
9, -143.65, -136.24, -101.22, -257.16, 0.000, 0.000, 0.000, 23:40:49.532, 1547019649532
10, -157.93, -149.29, -122.94, -260.48, 0.000, 0.000, 0.000, 23:40:49.532, 1547019649532
11, -156.04, -145.24, -107.64, -255.55, 0.000, 0.000, 0.000, 23:40:49.533, 1547019649533
12, -137.88, -133.98, -76.62, -231.77, 0.000, 0.000, 0.000, 23:40:49.533, 1547019649533
13, -150.71, -144.94, -103.57, -264.26, 0.000, 0.000, 0.000, 23:40:49.547, 1547019649547
14, -142.05, -129.61, -105.41, -254.44, 0.000, 0.000, 0.000, 23:40:49.547, 1547019649547
15, -126.86, -119.26, -92.39, -246.70, 0.000, 0.000, 0.000, 23:40:49.562, 1547019649562
16, -100.50, -112.32, -94.94, -246.57, 0.000, 0.000, 0.000, 23:40:49.562, 1547019649562
17, -77.50, -83.97, -108.06, -260.31, 0.000, 0.000, 0.000, 23:40:49.563, 1547019649563
18, -35.40, -46.17, -92.52, -243.87, 0.000, 0.000, 0.000, 23:40:49.563, 1547019649563
19, -23.55, -31.19, -64.70, -237.27, 0.000, 0.000, 0.000, 23:40:49.584, 1547019649584
20, 26.14, 1.75, -94.58, -245.11, 0.000, 0.000, 0.000, 23:40:49.584, 1547019649584
21, 81.12, 59.65, -80.88, -222.29, 0.000, 0.000, 0.000, 23:40:49.592, 1547019649592
22, 113.68, 101.72, -65.62, -219.00, 0.000, 0.000, 0.000, 23:40:49.592, 1547019649592
23, 95.04, 107.01, -83.92, -243.03, 0.000, 0.000, 0.000, 23:40:49.593, 1547019649593
24, 133.85, 151.07, -79.99, -241.40, 0.000, 0.000, 0.000, 23:40:49.593, 1547019649593
25, 155.28, 170.42, -68.06, -232.16, 0.000, 0.000, 0.000, 23:40:49.607, 1547019649607
26, 147.77, 163.91, -55.66, -215.28, 0.000, 0.000, 0.000, 23:40:49.607, 1547019649607
27, 99.75, 117.48, -68.11, -228.14, 0.000, 0.000, 0.000, 23:40:49.622, 1547019649622
28, 138.52, 149.82, -23.13, -207.09, 0.000, 0.000, 0.000, 23:40:49.622, 1547019649622
29, 132.64, 139.83, -48.96, -206.95, 0.000, 0.000, 0.000, 23:40:49.623, 1547019649623
30, 87.80, 117.28, -55.78, -211.17, 0.000, 0.000, 0.000, 23:40:49.623, 1547019649623
31, 74.33, 91.84, -68.62, -234.95, 0.000, 0.000, 0.000, 23:40:49.637, 1547019649637
32, 82.74, 91.40, -57.47, -233.29, 0.000, 0.000, 0.000, 23:40:49.637, 1547019649637
33, 84.09, 102.82, -48.07, -222.55, 0.000, 0.000, 0.000, 23:40:49.652, 1547019649652
34, 77.63, 77.81, -44.18, -205.98, 0.000, 0.000, 0.000, 23:40:49.652, 1547019649652
35, 34.55, 55.21, -68.48, -225.45, 0.000, 0.000, 0.000, 23:40:49.653, 1547019649653
36, 21.47, 23.44, -63.06, -233.18, 0.000, 0.000, 0.000, 23:40:49.653, 1547019649653
37, 20.29, 21.57, -69.76, -236.99, 0.000, 0.000, 0.000, 23:40:49.667, 1547019649667
38, 27.11, 29.32, -78.75, -230.66, 0.000, 0.000, 0.000, 23:40:49.667, 1547019649667
39, 32.18, 31.50, -43.08, -200.32, 0.000, 0.000, 0.000, 23:40:49.682, 1547019649682
40, -0.42, 2.29, -54.10, -209.06, 0.000, 0.000, 0.000, 23:40:49.682, 1547019649682
41, 9.54, 13.68, -50.70, -223.36, 0.000, 0.000, 0.000, 23:40:49.683, 1547019649683
42, -15.97, -4.18, -79.70, -240.94, 0.000, 0.000, 0.000, 23:40:49.683, 1547019649683
43, -23.57, -19.04, -70.14, -228.82, 0.000, 0.000, 0.000, 23:40:49.697, 1547019649697
44, -21.36, -20.91, -76.76, -239.19, 0.000, 0.000, 0.000, 23:40:49.697, 1547019649697
45, -19.74, -22.63, -66.02, -236.19, 0.000, 0.000, 0.000, 23:40:49.713, 1547019649713
46, -32.41, -27.77, -87.45, -242.81, 0.000, 0.000, 0.000, 23:40:49.713, 1547019649713
47, -53.52, -52.34, -80.71, -224.28, 0.000, 0.000, 0.000, 23:40:49.714, 1547019649714
48, -47.29, -57.28, -72.39, -226.64, 0.000, 0.000, 0.000, 23:40:49.714, 1547019649714
49, -57.10, -52.99, -61.04, -230.97, 0.000, 0.000, 0.000, 23:40:49.727, 1547019649727
50, -58.27, -52.26, -86.28, -239.51, 0.000, 0.000, 0.000, 23:40:49.727, 1547019649727
51, -72.71, -64.90, -111.66, -245.61, 0.000, 0.000, 0.000, 23:40:49.742, 1547019649742
52, -75.47, -75.49, -88.96, -245.08, 0.000, 0.000, 0.000, 23:40:49.742, 1547019649742
53, -73.28, -73.04, -79.93, -253.52, 0.000, 0.000, 0.000, 23:40:49.743, 1547019649743
54, -77.49, -73.38, -72.54, -226.10, 0.000, 0.000, 0.000, 23:40:49.743, 1547019649743
55, -108.50, -101.48, -68.12, -222.91, 0.000, 0.000, 0.000, 23:40:49.757, 1547019649757
56, -98.96, -95.11, -60.06, -234.98, 0.000, 0.000, 0.000, 23:40:49.757, 1547019649757
57, -103.01, -91.99, -84.26, -247.16, 0.000, 0.000, 0.000, 23:40:49.772, 1547019649772
58, -129.52, -116.52, -117.06, -256.80, 0.000, 0.000, 0.000, 23:40:49.772, 1547019649772
59, -149.10, -139.50, -133.46, -269.38, 0.000, 0.000, 0.000, 23:40:49.773, 1547019649773
60, -141.84, -140.24, -63.64, -213.73, 0.000, 0.000, 0.000, 23:40:49.773, 1547019649773
61, -160.30, -158.76, -62.09, -220.72, 0.000, 0.000, 0.000, 23:40:49.787, 1547019649787
62, -182.70, -165.48, -85.24, -232.99, 0.000, 0.000, 0.000, 23:40:49.787, 1547019649787
63, -216.69, -193.82, -110.67, -274.63, 0.000, 0.000, 0.000, 23:40:49.802, 1547019649802
64, -217.36, -198.68, -92.38, -252.65, 0.000, 0.000, 0.000, 23:40:49.802, 1547019649802
65, -233.18, -223.72, -97.90, -249.62, 0.000, 0.000, 0.000, 23:40:49.803, 1547019649803
66, -260.64, -249.82, -103.59, -255.40, 0.000, 0.000, 0.000, 23:40:49.803, 1547019649803
67, -291.86, -273.25, -128.88, -266.62, 0.000, 0.000, 0.000, 23:40:49.817, 1547019649817
68, -293.08, -282.75, -111.96, -259.15, 0.000, 0.000, 0.000, 23:40:49.817, 1547019649817
69, -305.67, -292.44, -114.79, -279.15, 0.000, 0.000, 0.000, 23:40:49.832, 1547019649832
70, -330.90, -307.76, -146.99, -292.19, 0.000, 0.000, 0.000, 23:40:49.832, 1547019649832
71, -361.29, -332.68, -150.10, -300.44, 0.000, 0.000, 0.000, 23:40:49.833, 1547019649833
72, -356.97, -334.97, -120.24, -270.49, 0.000, 0.000, 0.000, 23:40:49.833, 1547019649833
73, -366.94, -345.13, -108.19, -260.20, 0.000, 0.000, 0.000, 23:40:49.851, 1547019649851
74, -387.58, -367.76, -150.32, -299.47, 0.000, 0.000, 0.000, 23:40:49.851, 1547019649851
75, -400.10, -378.61, -171.53, -299.45, 0.000, 0.000, 0.000, 23:40:49.863, 1547019649863
76, -396.74, -372.79, -153.84, -295.84, 0.000, 0.000, 0.000, 23:40:49.863, 1547019649863
77, -388.69, -366.95, -154.74, -298.81, 0.000, 0.000, 0.000, 23:40:49.864, 1547019649864
78, -382.78, -370.16, -176.99, -298.85, 0.000, 0.000, 0.000, 23:40:49.864, 1547019649864
79, -378.91, -364.36, -164.72, -288.73, 0.000, 0.000, 0.000, 23:40:49.878, 1547019649878
80, -349.84, -345.16, -128.58, -263.97, 0.000, 0.000, 0.000, 23:40:49.878, 1547019649878
81, -342.89, -335.10, -149.53, -286.33, 0.000, 0.000, 0.000, 23:40:49.892, 1547019649892
82, -321.91, -314.38, -142.06, -278.86, 0.000, 0.000, 0.000, 23:40:49.892, 1547019649892
83, -317.49, -300.89, -158.45, -292.86, 0.000, 0.000, 0.000, 23:40:49.893, 1547019649893
84, -303.56, -293.15, -134.78, -285.06, 0.000, 0.000, 0.000, 23:40:49.893, 1547019649893
85, -282.95, -283.93, -135.32, -276.68, 0.000, 0.000, 0.000, 23:40:49.907, 1547019649907
86, -267.98, -250.87, -122.33, -271.28, 0.000, 0.000, 0.000, 23:40:49.907, 1547019649907
87, -248.39, -228.79, -114.12, -255.22, 0.000, 0.000, 0.000, 23:40:49.922, 1547019649922
88, -240.83, -252.32, -110.77, -269.49, 0.000, 0.000, 0.000, 23:40:49.922, 1547019649922
89, -242.18, -196.60, -128.18, -280.42, 0.000, 0.000, 0.000, 23:40:49.923, 1547019649923
90, -200.18, -235.20, -137.46, -278.38, 0.000, 0.000, 0.000, 23:40:49.923, 1547019649923
91, -199.76, -184.95, -115.54, -260.41, 0.000, 0.000, 0.000, 23:40:49.937, 1547019649937
92, -122.65, -101.29, -84.80, -235.37, 0.000, 0.000, 0.000, 23:40:49.937, 1547019649937
93, -148.87, -176.35, -86.96, -241.89, 0.000, 0.000, 0.000, 23:40:49.952, 1547019649952
94, -101.36, -85.33, -97.99, -234.90, 0.000, 0.000, 0.000, 23:40:49.952, 1547019649952
95, -25.67, -15.05, -79.03, -246.05, 0.000, 0.000, 0.000, 23:40:49.953, 1547019649953
96, 21.67, 20.54, -97.93, -249.64, 0.000, 0.000, 0.000, 23:40:49.953, 1547019649953
97, 57.82, 52.60, -101.02, -253.72, 0.000, 0.000, 0.000, 23:40:49.967, 1547019649967
98, 71.02, 55.77, -94.25, -247.42, 0.000, 0.000, 0.000, 23:40:49.967, 1547019649967
99, 62.97, 110.13, -86.71, -237.80, 0.000, 0.000, 0.000, 23:40:49.984, 1547019649984
100, 67.26, 135.17, -56.64, -212.70, 0.000, 0.000, 0.000, 23:40:49.984, 1547019649984
101, 77.62, 174.66, -53.19, -214.72, 0.000, 0.000, 0.000, 23:40:49.985, 1547019649985
102, 68.84, 248.03, -80.53, -240.93, 0.000, 0.000, 0.000, 23:40:49.985, 1547019649985
103, 81.73, 291.86, -70.77, -231.23, 0.000, 0.000, 0.000, 23:40:49.997, 1547019649997
104, 85.78, 349.43, -47.46, -228.86, 0.000, 0.000, 0.000, 23:40:49.997, 1547019649997
105, 80.53, 369.49, -29.61, -202.24, 0.000, 0.000, 0.000, 23:40:50.012, 1547019650012
106, 77.24, 395.54, -54.73, -207.11, 0.000, 0.000, 0.000, 23:40:50.012, 1547019650012
107, 44.40, 369.14, -78.03, -233.06, 0.000, 0.000, 0.000, 23:40:50.020, 1547019650020
108, 14.48, 332.74, -104.56, -275.68, 0.000, 0.000, 0.000, 23:40:50.020, 1547019650020
109, -12.06, 301.06, -96.16, -248.99, 0.000, 0.000, 0.000, 23:40:50.027, 1547019650027
110, -47.97, 267.42, -85.85, -246.53, 0.000, 0.000, 0.000, 23:40:50.027, 1547019650027
111, -90.16, 210.81, -81.28, -235.61, 0.000, 0.000, 0.000, 23:40:50.042, 1547019650042
112, -121.05, 157.93, -74.45, -243.23, 0.000, 0.000, 0.000, 23:40:50.042, 1547019650042
113, -138.17, 109.71, -62.93, -247.24, 0.000, 0.000, 0.000, 23:40:50.043, 1547019650043
114, -164.60, 58.60, -96.82, -253.21, 0.000, 0.000, 0.000, 23:40:50.043, 1547019650043
115, -192.49, -5.02, -94.39, -250.21, 0.000, 0.000, 0.000, 23:40:50.058, 1547019650058
116, -215.65, -65.24, -76.92, -243.04, 0.000, 0.000, 0.000, 23:40:50.058, 1547019650058
117, -231.38, -115.37, -82.00, -242.27, 0.000, 0.000, 0.000, 23:40:50.072, 1547019650072
118, -254.52, -164.47, -88.67, -250.59, 0.000, 0.000, 0.000, 23:40:50.072, 1547019650072
119, -271.88, -208.83, -115.98, -261.87, 0.000, 0.000, 0.000, 23:40:50.073, 1547019650073
120, -276.83, -253.16, -113.47, -241.53, 0.000, 0.000, 0.000, 23:40:50.073, 1547019650073
121, -275.86, -275.65, -109.24, -270.74, 0.000, 0.000, 0.000, 23:40:50.088, 1547019650088
122, -275.54, -294.49, -116.87, -267.51, 0.000, 0.000, 0.000, 23:40:50.088, 1547019650088
123, -291.41, -318.03, -126.71, -275.57, 0.000, 0.000, 0.000, 23:40:50.102, 1547019650102
124, -279.36, -326.48, -103.03, -254.87, 0.000, 0.000, 0.000, 23:40:50.102, 1547019650102
125, -280.51, -333.92, -134.40, -277.64, 0.000, 0.000, 0.000, 23:40:50.103, 1547019650103
126, -279.64, -333.65, -112.17, -258.08, 0.000, 0.000, 0.000, 23:40:50.103, 1547019650103
127, -282.89, -338.21, -119.47, -259.30, 0.000, 0.000, 0.000, 23:40:50.117, 1547019650117
128, -266.27, -334.96, -118.03, -266.52, 0.000, 0.000, 0.000, 23:40:50.117, 1547019650117
129, -258.36, -327.27, -110.64, -256.74, 0.000, 0.000, 0.000, 23:40:50.132, 1547019650132
130, -256.53, -319.63, -118.03, -272.12, 0.000, 0.000, 0.000, 23:40:50.132, 1547019650132
131, -261.81, -320.19, -119.57, -261.66, 0.000, 0.000, 0.000, 23:40:50.133, 1547019650133
132, -255.52, -319.00, -106.86, -260.96, 0.000, 0.000, 0.000, 23:40:50.133, 1547019650133
133, -246.19, -309.06, -107.84, -253.49, 0.000, 0.000, 0.000, 23:40:50.148, 1547019650148
134, -237.43, -294.47, -125.56, -255.99, 0.000, 0.000, 0.000, 23:40:50.148, 1547019650148
135, -237.19, -293.93, -135.38, -266.64, 0.000, 0.000, 0.000, 23:40:50.163, 1547019650163
136, -223.07, -280.77, -106.61, -256.67, 0.000, 0.000, 0.000, 23:40:50.163, 1547019650163
137, -207.13, -258.27, -97.38, -241.67, 0.000, 0.000, 0.000, 23:40:50.163, 1547019650163
138, -215.91, -260.63, -106.29, -249.91, 0.000, 0.000, 0.000, 23:40:50.163, 1547019650163
139, -203.55, -254.15, -112.58, -255.07, 0.000, 0.000, 0.000, 23:40:50.178, 1547019650178
140, -197.09, -248.18, -86.08, -245.55, 0.000, 0.000, 0.000, 23:40:50.178, 1547019650178
141, -156.23, -206.45, -97.56, -256.92, 0.000, 0.000, 0.000, 23:40:50.192, 1547019650192
142, -143.64, -190.07, -129.75, -262.65, 0.000, 0.000, 0.000, 23:40:50.192, 1547019650192
143, -98.63, -152.15, -121.56, -254.96, 0.000, 0.000, 0.000, 23:40:50.193, 1547019650193
144, -25.55, -83.35, -96.42, -245.00, 0.000, 0.000, 0.000, 23:40:50.193, 1547019650193
145, 31.83, -1.60, -81.50, -224.77, 0.000, 0.000, 0.000, 23:40:50.207, 1547019650207
146, 92.25, 61.26, -75.51, -225.81, 0.000, 0.000, 0.000, 23:40:50.207, 1547019650207
147, 79.01, 88.18, -71.65, -221.10, 0.000, 0.000, 0.000, 23:40:50.222, 1547019650222
148, 107.02, 74.63, -66.90, -215.45, 0.000, 0.000, 0.000, 23:40:50.222, 1547019650222
149, 107.67, 90.51, -86.17, -244.97, 0.000, 0.000, 0.000, 23:40:50.223, 1547019650223
150, 97.55, 90.32, -86.86, -241.27, 0.000, 0.000, 0.000, 23:40:50.223, 1547019650223
151, 63.94, 57.01, -87.49, -239.86, 0.000, 0.000, 0.000, 23:40:50.237, 1547019650237
152, 56.11, 66.58, -52.00, -217.56, 0.000, 0.000, 0.000, 23:40:50.237, 1547019650237
153, 70.70, 43.70, -60.46, -214.69, 0.000, 0.000, 0.000, 23:40:50.252, 1547019650252
154, 53.03, 42.40, -77.07, -244.39, 0.000, 0.000, 0.000, 23:40:50.252, 1547019650252
155, 34.70, 24.57, -53.58, -226.55, 0.000, 0.000, 0.000, 23:40:50.253, 1547019650253
156, 40.75, 23.41, -50.72, -216.77, 0.000, 0.000, 0.000, 23:40:50.253, 1547019650253
157, 6.28, -12.58, -82.44, -223.30, 0.000, 0.000, 0.000, 23:40:50.267, 1547019650267
158, -33.49, -43.31, -96.86, -261.60, 0.000, 0.000, 0.000, 23:40:50.267, 1547019650267
159, -71.01, -86.47, -81.05, -252.28, 0.000, 0.000, 0.000, 23:40:50.282, 1547019650282
160, -86.46, -96.94, -93.17, -250.80, 0.000, 0.000, 0.000, 23:40:50.282, 1547019650282
161, -121.05, -132.22, -87.74, -244.40, 0.000, 0.000, 0.000, 23:40:50.283, 1547019650283
162, -144.27, -155.85, -87.23, -240.01, 0.000, 0.000, 0.000, 23:40:50.283, 1547019650283
163, -194.81, -199.88, -105.82, -253.70, 0.000, 0.000, 0.000, 23:40:50.297, 1547019650297
164, -208.28, -212.46, -89.84, -251.19, 0.000, 0.000, 0.000, 23:40:50.297, 1547019650297
165, -232.93, -226.83, -108.07, -261.28, 0.000, 0.000, 0.000, 23:40:50.313, 1547019650313
166, -237.93, -237.33, -109.81, -258.45, 0.000, 0.000, 0.000, 23:40:50.313, 1547019650313
167, -271.59, -270.67, -129.60, -269.88, 0.000, 0.000, 0.000, 23:40:50.319, 1547019650319
168, -273.70, -278.45, -107.47, -252.87, 0.000, 0.000, 0.000, 23:40:50.319, 1547019650319
169, -288.34, -289.25, -109.93, -269.89, 0.000, 0.000, 0.000, 23:40:50.327, 1547019650327
170, -298.03, -297.12, -112.34, -259.77, 0.000, 0.000, 0.000, 23:40:50.327, 1547019650327
171, -307.57, -318.07, -136.01, -269.36, 0.000, 0.000, 0.000, 23:40:50.342, 1547019650342
172, -306.88, -318.06, -122.28, -274.84, 0.000, 0.000, 0.000, 23:40:50.342, 1547019650342
173, -294.27, -305.76, -77.34, -242.90, 0.000, 0.000, 0.000, 23:40:50.343, 1547019650343
174, -292.87, -300.46, -100.54, -238.84, 0.000, 0.000, 0.000, 23:40:50.343, 1547019650343
175, -311.42, -312.43, -167.52, -287.07, 0.000, 0.000, 0.000, 23:40:50.357, 1547019650357
176, -297.83, -307.83, -126.32, -277.99, 0.000, 0.000, 0.000, 23:40:50.357, 1547019650357
177, -273.84, -289.38, -128.68, -273.93, 0.000, 0.000, 0.000, 23:40:50.372, 1547019650372
178, -272.85, -278.21, -114.46, -254.86, 0.000, 0.000, 0.000, 23:40:50.372, 1547019650372
179, -277.76, -280.01, -114.47, -259.67, 0.000, 0.000, 0.000, 23:40:50.373, 1547019650373
180, -260.23, -266.50, -76.13, -247.33, 0.000, 0.000, 0.000, 23:40:50.373, 1547019650373
181, -255.43, -265.82, -125.96, -267.36, 0.000, 0.000, 0.000, 23:40:50.387, 1547019650387
182, -247.24, -252.45, -126.75, -270.56, 0.000, 0.000, 0.000, 23:40:50.387, 1547019650387
183, -246.02, -251.13, -121.72, -265.89, 0.000, 0.000, 0.000, 23:40:50.402, 1547019650402
184, -236.10, -247.94, -110.54, -266.58, 0.000, 0.000, 0.000, 23:40:50.402, 1547019650402
185, -224.55, -233.18, -110.56, -251.18, 0.000, 0.000, 0.000, 23:40:50.403, 1547019650403
186, -217.80, -222.85, -117.07, -251.06, 0.000, 0.000, 0.000, 23:40:50.403, 1547019650403
187, -222.61, -223.68, -115.76, -244.63, 0.000, 0.000, 0.000, 23:40:50.417, 1547019650417
188, -214.43, -221.55, -116.01, -249.82, 0.000, 0.000, 0.000, 23:40:50.417, 1547019650417
189, -205.31, -207.51, -107.56, -251.02, 0.000, 0.000, 0.000, 23:40:50.432, 1547019650432
190, -199.41, -195.29, -101.56, -242.02, 0.000, 0.000, 0.000, 23:40:50.432, 1547019650432
191, -200.21, -208.36, -124.12, -266.79, 0.000, 0.000, 0.000, 23:40:50.433, 1547019650433
192, -201.99, -202.32, -106.45, -261.57, 0.000, 0.000, 0.000, 23:40:50.433, 1547019650433
193, -177.30, -183.49, -77.53, -246.03, 0.000, 0.000, 0.000, 23:40:50.447, 1547019650447
194, -163.91, -172.90, -93.64, -250.92, 0.000, 0.000, 0.000, 23:40:50.447, 1547019650447
195, -142.66, -148.31, -107.22, -253.21, 0.000, 0.000, 0.000, 23:40:50.462, 1547019650462
196, -93.13, -115.11, -84.58, -245.65, 0.000, 0.000, 0.000, 23:40:50.462, 1547019650462
197, 2.61, -29.77, -63.70, -227.55, 0.000, 0.000, 0.000, 23:40:50.463, 1547019650463
198, 66.53, 75.69, -81.57, -227.91, 0.000, 0.000, 0.000, 23:40:50.463, 1547019650463
199, 104.21, 56.83, -92.15, -231.68, 0.000, 0.000, 0.000, 23:40:50.478, 1547019650478
200, 118.87, 110.63, -52.71, -218.80, 0.000, 0.000, 0.000, 23:40:50.478, 1547019650478
0, 109.69, 134.77, -47.98, -208.81, 0.000, 0.000, 0.000, 23:40:50.478, 1547019650478
1, 120.68, 125.10, -83.06, -202.77, 0.000, 0.000, 0.000, 23:40:50.492, 1547019650492
2, 96.82, 137.72, -105.01, -240.43, 0.000, 0.000, 0.000, 23:40:50.492, 1547019650492
3, 93.37, 98.76, -85.99, -276.52, 0.000, 0.000, 0.000, 23:40:50.507, 1547019650507
4, 115.25, 113.81, -55.97, -230.65, 0.000, 0.000, 0.000, 23:40:50.507, 1547019650507
5, 81.74, 112.93, -45.13, -217.86, 0.000, 0.000, 0.000, 23:40:50.508, 1547019650508
6, 47.51, 76.70, -64.79, -224.21, 0.000, 0.000, 0.000, 23:40:50.508, 1547019650508
7, 53.32, 63.41, -79.47, -233.07, 0.000, 0.000, 0.000, 23:40:50.522, 1547019650522
8, 36.18, 42.87, -71.33, -231.76, 0.000, 0.000, 0.000, 23:40:50.522, 1547019650522
9, 21.12, 46.07, -96.63, -254.84, 0.000, 0.000, 0.000, 23:40:50.537, 1547019650537
10, -3.54, 11.31, -60.51, -229.93, 0.000, 0.000, 0.000, 23:40:50.537, 1547019650537
11, -32.04, -14.02, -61.42, -221.88, 0.000, 0.000, 0.000, 23:40:50.538, 1547019650538
12, -68.44, -54.98, -82.74, -237.73, 0.000, 0.000, 0.000, 23:40:50.538, 1547019650538
13, -110.72, -85.07, -116.55, -263.88, 0.000, 0.000, 0.000, 23:40:50.552, 1547019650552
14, -149.67, -135.06, -98.56, -239.67, 0.000, 0.000, 0.000, 23:40:50.552, 1547019650552
15, -166.92, -149.02, -89.80, -252.19, 0.000, 0.000, 0.000, 23:40:50.567, 1547019650567
16, -187.31, -178.24, -88.36, -243.75, 0.000, 0.000, 0.000, 23:40:50.567, 1547019650567
17, -222.83, -203.52, -129.88, -268.81, 0.000, 0.000, 0.000, 23:40:50.574, 1547019650574
18, -247.86, -234.45, -127.70, -267.00, 0.000, 0.000, 0.000, 23:40:50.574, 1547019650574
19, -265.90, -258.68, -106.93, -257.95, 0.000, 0.000, 0.000, 23:40:50.582, 1547019650582
20, -268.29, -260.36, -107.80, -250.72, 0.000, 0.000, 0.000, 23:40:50.582, 1547019650582
21, -284.40, -275.78, -114.07, -267.16, 0.000, 0.000, 0.000, 23:40:50.597, 1547019650597
22, -300.26, -299.17, -132.96, -267.08, 0.000, 0.000, 0.000, 23:40:50.597, 1547019650597
23, -292.50, -295.63, -88.75, -254.30, 0.000, 0.000, 0.000, 23:40:50.598, 1547019650598
24, -295.00, -295.37, -130.44, -256.34, 0.000, 0.000, 0.000, 23:40:50.598, 1547019650598
25, -290.26, -285.86, -113.24, -255.59, 0.000, 0.000, 0.000, 23:40:50.613, 1547019650613
26, -291.69, -289.88, -127.06, -271.44, 0.000, 0.000, 0.000, 23:40:50.613, 1547019650613
27, -287.27, -281.04, -111.04, -256.03, 0.000, 0.000, 0.000, 23:40:50.627, 1547019650627
28, -276.78, -274.71, -98.48, -246.54, 0.000, 0.000, 0.000, 23:40:50.627, 1547019650627
29, -279.32, -275.72, -124.66, -266.19, 0.000, 0.000, 0.000, 23:40:50.628, 1547019650628
30, -275.06, -269.29, -128.15, -268.89, 0.000, 0.000, 0.000, 23:40:50.628, 1547019650628
31, -266.56, -268.38, -104.59, -262.87, 0.000, 0.000, 0.000, 23:40:50.642, 1547019650642
32, -258.49, -251.61, -112.48, -268.02, 0.000, 0.000, 0.000, 23:40:50.642, 1547019650642
33, -255.02, -248.69, -109.28, -257.01, 0.000, 0.000, 0.000, 23:40:50.657, 1547019650657
34, -260.98, -254.18, -128.76, -272.67, 0.000, 0.000, 0.000, 23:40:50.657, 1547019650657
35, -240.23, -240.55, -99.42, -248.70, 0.000, 0.000, 0.000, 23:40:50.658, 1547019650658
36, -235.00, -231.15, -116.68, -268.35, 0.000, 0.000, 0.000, 23:40:50.658, 1547019650658
37, -231.59, -220.96, -126.77, -262.63, 0.000, 0.000, 0.000, 23:40:50.672, 1547019650672
38, -234.91, -228.98, -115.21, -258.30, 0.000, 0.000, 0.000, 23:40:50.672, 1547019650672
39, -221.06, -219.61, -93.21, -249.10, 0.000, 0.000, 0.000, 23:40:50.687, 1547019650687
40, -208.76, -203.90, -106.28, -266.56, 0.000, 0.000, 0.000, 23:40:50.687, 1547019650687
41, -202.21, -182.75, -114.36, -265.53, 0.000, 0.000, 0.000, 23:40:50.688, 1547019650688
42, -217.65, -231.16, -114.37, -262.03, 0.000, 0.000, 0.000, 23:40:50.688, 1547019650688
43, -195.08, -184.69, -94.01, -237.99, 0.000, 0.000, 0.000, 23:40:50.702, 1547019650702
44, -198.00, -202.40, -95.44, -250.74, 0.000, 0.000, 0.000, 23:40:50.702, 1547019650702
45, -180.35, -192.07, -79.56, -245.54, 0.000, 0.000, 0.000, 23:40:50.717, 1547019650717
46, -192.53, -177.14, -105.36, -249.31, 0.000, 0.000, 0.000, 23:40:50.717, 1547019650717
47, -189.79, -183.11, -117.95, -255.89, 0.000, 0.000, 0.000, 23:40:50.718, 1547019650718
48, -180.75, -163.81, -107.66, -251.87, 0.000, 0.000, 0.000, 23:40:50.718, 1547019650718
49, -162.18, -153.07, -108.34, -248.05, 0.000, 0.000, 0.000, 23:40:50.732, 1547019650732
50, -170.31, -168.29, -119.12, -263.85, 0.000, 0.000, 0.000, 23:40:50.732, 1547019650732
51, -154.51, -143.52, -107.27, -254.70, 0.000, 0.000, 0.000, 23:40:50.747, 1547019650747
52, -103.58, -88.84, -108.30, -255.81, 0.000, 0.000, 0.000, 23:40:50.747, 1547019650747
53, -72.21, -79.99, -109.19, -255.34, 0.000, 0.000, 0.000, 23:40:50.748, 1547019650748
54, -96.70, -106.17, -107.26, -249.28, 0.000, 0.000, 0.000, 23:40:50.748, 1547019650748
55, -14.99, -5.23, -83.35, -236.49, 0.000, 0.000, 0.000, 23:40:50.762, 1547019650762
56, 71.50, 54.36, -86.03, -235.25, 0.000, 0.000, 0.000, 23:40:50.762, 1547019650762
57, 83.33, 117.99, -82.55, -234.05, 0.000, 0.000, 0.000, 23:40:50.792, 1547019650792
58, 103.69, 129.70, -84.63, -242.41, 0.000, 0.000, 0.000, 23:40:50.792, 1547019650792
59, 130.37, 163.81, -77.95, -247.17, 0.000, 0.000, 0.000, 23:40:50.792, 1547019650792
60, 78.67, 172.98, -27.02, -221.61, 0.000, 0.000, 0.000, 23:40:50.792, 1547019650792
61, 104.72, 247.39, -78.82, -236.40, 0.000, 0.000, 0.000, 23:40:50.792, 1547019650792
62, 74.43, 257.74, -101.28, -237.35, 0.000, 0.000, 0.000, 23:40:50.792, 1547019650792
63, 138.11, 371.13, -14.94, -187.97, 0.000, 0.000, 0.000, 23:40:50.807, 1547019650807
64, 49.32, 382.89, -95.86, -255.96, 0.000, 0.000, 0.000, 23:40:50.807, 1547019650807
65, 67.99, 477.14, -86.99, -244.32, 0.000, 0.000, 0.000, 23:40:50.808, 1547019650808
66, 55.13, 497.81, -102.09, -272.16, 0.000, 0.000, 0.000, 23:40:50.808, 1547019650808
67, 52.74, 520.40, -88.50, -262.47, 0.000, 0.000, 0.000, 23:40:50.822, 1547019650822
68, 72.91, 589.07, -65.17, -236.61, 0.000, 0.000, 0.000, 23:40:50.822, 1547019650822
69, 34.78, 562.91, -69.94, -246.40, 0.000, 0.000, 0.000, 23:40:50.837, 1547019650837
70, 26.67, 578.91, -69.22, -246.36, 0.000, 0.000, 0.000, 23:40:50.837, 1547019650837
71, 20.75, 574.09, -51.48, -240.42, 0.000, 0.000, 0.000, 23:40:50.838, 1547019650838
72, 17.49, 571.72, -70.39, -234.29, 0.000, 0.000, 0.000, 23:40:50.838, 1547019650838
73, -11.33, 540.84, -92.73, -246.72, 0.000, 0.000, 0.000, 23:40:50.852, 1547019650852
74, -37.11, 496.72, -83.07, -247.04, 0.000, 0.000, 0.000, 23:40:50.852, 1547019650852
75, -59.11, 462.89, -74.32, -242.66, 0.000, 0.000, 0.000, 23:40:50.867, 1547019650867
76, -66.13, 409.73, -68.14, -249.21, 0.000, 0.000, 0.000, 23:40:50.867, 1547019650867
77, -87.35, 338.26, -81.53, -241.60, 0.000, 0.000, 0.000, 23:40:50.868, 1547019650868
78, -110.00, 256.64, -64.59, -234.66, 0.000, 0.000, 0.000, 23:40:50.868, 1547019650868
79, -121.34, 168.19, -51.32, -227.80, 0.000, 0.000, 0.000, 23:40:50.883, 1547019650883
80, -137.23, 88.80, -82.78, -238.92, 0.000, 0.000, 0.000, 23:40:50.883, 1547019650883
81, -166.12, 3.98, -93.12, -241.80, 0.000, 0.000, 0.000, 23:40:50.897, 1547019650897
82, -195.20, -71.97, -101.88, -248.43, 0.000, 0.000, 0.000, 23:40:50.897, 1547019650897
83, -193.79, -131.25, -77.59, -249.74, 0.000, 0.000, 0.000, 23:40:50.898, 1547019650898
84, -215.10, -179.18, -84.09, -250.53, 0.000, 0.000, 0.000, 23:40:50.898, 1547019650898
85, -222.81, -219.13, -108.49, -244.99, 0.000, 0.000, 0.000, 23:40:50.912, 1547019650912
86, -250.70, -269.02, -128.90, -270.50, 0.000, 0.000, 0.000, 23:40:50.913, 1547019650913
87, -252.06, -301.10, -111.87, -272.14, 0.000, 0.000, 0.000, 23:40:50.927, 1547019650927
88, -244.08, -319.20, -94.81, -249.37, 0.000, 0.000, 0.000, 23:40:50.927, 1547019650927
89, -244.31, -328.52, -101.32, -254.82, 0.000, 0.000, 0.000, 23:40:50.928, 1547019650928
90, -261.65, -351.80, -123.27, -268.65, 0.000, 0.000, 0.000, 23:40:50.928, 1547019650928
91, -257.39, -362.97, -112.12, -264.38, 0.000, 0.000, 0.000, 23:40:50.942, 1547019650942
92, -247.87, -354.01, -125.12, -267.56, 0.000, 0.000, 0.000, 23:40:50.942, 1547019650942
93, -241.51, -348.96, -121.80, -267.98, 0.000, 0.000, 0.000, 23:40:50.957, 1547019650957
94, -247.49, -356.48, -120.42, -266.59, 0.000, 0.000, 0.000, 23:40:50.957, 1547019650957
95, -233.55, -343.01, -96.37, -251.86, 0.000, 0.000, 0.000, 23:40:50.958, 1547019650958
96, -236.17, -344.65, -102.10, -254.88, 0.000, 0.000, 0.000, 23:40:50.958, 1547019650958
97, -220.14, -330.12, -101.39, -245.59, 0.000, 0.000, 0.000, 23:40:50.972, 1547019650972
98, -228.51, -333.96, -122.70, -250.04, 0.000, 0.000, 0.000, 23:40:50.972, 1547019650972
99, -223.08, -339.69, -78.07, -230.77, 0.000, 0.000, 0.000, 23:40:50.988, 1547019650988
100, -197.94, -297.76, -84.98, -247.03, 0.000, 0.000, 0.000, 23:40:50.988, 1547019650988
101, -220.68, -307.75, -131.54, -277.40, 0.000, 0.000, 0.000, 23:40:50.989, 1547019650989
102, -185.83, -277.02, -123.34, -264.40, 0.000, 0.000, 0.000, 23:40:50.989, 1547019650989
103, -182.77, -288.21, -89.12, -245.95, 0.000, 0.000, 0.000, 23:40:51.002, 1547019651002
104, -156.23, -243.98, -84.11, -237.86, 0.000, 0.000, 0.000, 23:40:51.002, 1547019651002
105, -167.60, -257.11, -109.64, -253.09, 0.000, 0.000, 0.000, 23:40:51.017, 1547019651017
106, -96.27, -193.58, -111.22, -250.08, 0.000, 0.000, 0.000, 23:40:51.017, 1547019651017
107, -66.56, -130.46, -96.12, -246.52, 0.000, 0.000, 0.000, 23:40:51.018, 1547019651018
108, 14.39, -71.59, -84.65, -226.33, 0.000, 0.000, 0.000, 23:40:51.018, 1547019651018
109, 58.44, -45.32, -81.57, -233.58, 0.000, 0.000, 0.000, 23:40:51.032, 1547019651032
110, 75.58, -35.43, -79.60, -236.81, 0.000, 0.000, 0.000, 23:40:51.032, 1547019651032
111, 63.63, 2.30, -79.12, -223.75, 0.000, 0.000, 0.000, 23:40:51.047, 1547019651047
112, 81.58, 35.75, -78.52, -232.65, 0.000, 0.000, 0.000, 23:40:51.047, 1547019651047
113, 64.43, 45.63, -91.09, -238.18, 0.000, 0.000, 0.000, 23:40:51.048, 1547019651048
114, 59.33, 89.89, -95.62, -245.77, 0.000, 0.000, 0.000, 23:40:51.048, 1547019651048
115, 53.65, 63.58, -65.69, -236.35, 0.000, 0.000, 0.000, 23:40:51.062, 1547019651062
116, 76.48, 85.76, -13.28, -196.05, 0.000, 0.000, 0.000, 23:40:51.062, 1547019651062
117, 54.16, 108.19, -58.69, -222.69, 0.000, 0.000, 0.000, 23:40:51.078, 1547019651078
118, 17.32, 101.07, -129.12, -254.05, 0.000, 0.000, 0.000, 23:40:51.078, 1547019651078
119, -2.68, 107.10, -87.14, -234.72, 0.000, 0.000, 0.000, 23:40:51.078, 1547019651078
120, -18.81, 107.77, -87.91, -251.42, 0.000, 0.000, 0.000, 23:40:51.078, 1547019651078
121, -58.76, 84.10, -97.84, -261.03, 0.000, 0.000, 0.000, 23:40:51.092, 1547019651092
122, -102.93, 47.05, -94.90, -249.35, 0.000, 0.000, 0.000, 23:40:51.092, 1547019651092
123, -127.46, 25.15, -81.82, -250.63, 0.000, 0.000, 0.000, 23:40:51.107, 1547019651107
124, -163.19, -26.07, -62.03, -225.96, 0.000, 0.000, 0.000, 23:40:51.107, 1547019651107
125, -194.55, -75.02, -111.47, -246.52, 0.000, 0.000, 0.000, 23:40:51.108, 1547019651108
126, -220.84, -134.49, -116.31, -264.08, 0.000, 0.000, 0.000, 23:40:51.108, 1547019651108
127, -222.01, -171.34, -95.94, -259.21, 0.000, 0.000, 0.000, 23:40:51.122, 1547019651122
128, -235.03, -212.64, -90.28, -264.82, 0.000, 0.000, 0.000, 23:40:51.122, 1547019651122
129, -254.85, -244.39, -106.50, -265.69, 0.000, 0.000, 0.000, 23:40:51.137, 1547019651137
130, -265.90, -267.59, -102.33, -251.77, 0.000, 0.000, 0.000, 23:40:51.137, 1547019651137
131, -271.60, -300.82, -87.29, -245.49, 0.000, 0.000, 0.000, 23:40:51.138, 1547019651138
132, -289.37, -323.16, -154.99, -282.17, 0.000, 0.000, 0.000, 23:40:51.138, 1547019651138
133, -292.33, -330.61, -137.97, -274.37, 0.000, 0.000, 0.000, 23:40:51.152, 1547019651152
134, -279.96, -326.98, -121.96, -265.04, 0.000, 0.000, 0.000, 23:40:51.152, 1547019651152
135, -274.39, -332.35, -105.20, -252.49, 0.000, 0.000, 0.000, 23:40:51.167, 1547019651167
136, -275.78, -327.36, -109.86, -256.90, 0.000, 0.000, 0.000, 23:40:51.167, 1547019651167
137, -272.39, -324.90, -103.73, -249.01, 0.000, 0.000, 0.000, 23:40:51.168, 1547019651168
138, -275.53, -329.72, -135.88, -265.53, 0.000, 0.000, 0.000, 23:40:51.168, 1547019651168
139, -274.37, -332.09, -139.33, -289.58, 0.000, 0.000, 0.000, 23:40:51.182, 1547019651182
140, -265.44, -314.65, -118.86, -270.39, 0.000, 0.000, 0.000, 23:40:51.182, 1547019651182
141, -257.64, -308.77, -124.11, -264.94, 0.000, 0.000, 0.000, 23:40:51.197, 1547019651197
142, -257.82, -304.22, -124.69, -273.24, 0.000, 0.000, 0.000, 23:40:51.197, 1547019651197
143, -247.90, -301.68, -102.15, -253.89, 0.000, 0.000, 0.000, 23:40:51.198, 1547019651198
144, -232.31, -283.76, -105.89, -253.37, 0.000, 0.000, 0.000, 23:40:51.198, 1547019651198
145, -225.50, -273.23, -117.21, -263.18, 0.000, 0.000, 0.000, 23:40:51.212, 1547019651212
146, -236.80, -278.02, -127.07, -270.12, 0.000, 0.000, 0.000, 23:40:51.212, 1547019651212
147, -228.04, -265.91, -102.59, -246.87, 0.000, 0.000, 0.000, 23:40:51.227, 1547019651227
148, -221.57, -267.24, -97.91, -251.52, 0.000, 0.000, 0.000, 23:40:51.227, 1547019651227
149, -200.72, -243.58, -95.65, -234.02, 0.000, 0.000, 0.000, 23:40:51.228, 1547019651228
150, -204.87, -251.03, -125.28, -255.54, 0.000, 0.000, 0.000, 23:40:51.228, 1547019651228
151, -205.42, -240.53, -103.21, -259.87, 0.000, 0.000, 0.000, 23:40:51.242, 1547019651242
152, -193.49, -236.49, -104.98, -257.80, 0.000, 0.000, 0.000, 23:40:51.242, 1547019651242
153, -182.08, -209.71, -106.84, -249.91, 0.000, 0.000, 0.000, 23:40:51.257, 1547019651257
154, -168.53, -219.88, -108.99, -246.91, 0.000, 0.000, 0.000, 23:40:51.257, 1547019651257
155, -105.69, -133.14, -88.29, -242.61, 0.000, 0.000, 0.000, 23:40:51.258, 1547019651258
156, -69.57, -124.25, -83.54, -242.20, 0.000, 0.000, 0.000, 23:40:51.258, 1547019651258
157, 9.57, -65.52, -100.31, -251.02, 0.000, 0.000, 0.000, 23:40:51.272, 1547019651272
158, 2.73, -22.93, -91.03, -233.28, 0.000, 0.000, 0.000, 23:40:51.272, 1547019651272
159, 39.17, -4.24, -74.44, -224.95, 0.000, 0.000, 0.000, 23:40:51.287, 1547019651287
160, 80.77, 60.63, -71.81, -230.28, 0.000, 0.000, 0.000, 23:40:51.287, 1547019651287
161, 93.20, 78.20, -66.94, -226.75, 0.000, 0.000, 0.000, 23:40:51.288, 1547019651288
162, 55.05, 82.28, -116.44, -258.66, 0.000, 0.000, 0.000, 23:40:51.288, 1547019651288
163, 59.78, 96.45, -87.65, -251.44, 0.000, 0.000, 0.000, 23:40:51.302, 1547019651302
164, 98.63, 154.49, -57.80, -216.87, 0.000, 0.000, 0.000, 23:40:51.302, 1547019651302
165, 67.94, 155.44, -31.72, -200.61, 0.000, 0.000, 0.000, 23:40:51.317, 1547019651317
166, -5.94, 153.55, -106.65, -258.40, 0.000, 0.000, 0.000, 23:40:51.317, 1547019651317
167, 28.67, 231.79, -100.79, -258.52, 0.000, 0.000, 0.000, 23:40:51.318, 1547019651318
168, 24.09, 286.58, -79.06, -236.03, 0.000, 0.000, 0.000, 23:40:51.318, 1547019651318
169, 16.06, 305.17, -63.07, -233.16, 0.000, 0.000, 0.000, 23:40:51.332, 1547019651332
170, -10.98, 305.98, -54.77, -229.13, 0.000, 0.000, 0.000, 23:40:51.332, 1547019651332
171, -23.59, 311.07, -80.87, -234.89, 0.000, 0.000, 0.000, 23:40:51.347, 1547019651347
172, -49.73, 301.34, -81.41, -236.43, 0.000, 0.000, 0.000, 23:40:51.347, 1547019651347
173, -72.42, 281.00, -77.04, -240.87, 0.000, 0.000, 0.000, 23:40:51.348, 1547019651348
174, -113.01, 234.72, -88.90, -237.41, 0.000, 0.000, 0.000, 23:40:51.348, 1547019651348
175, -126.26, 195.68, -80.96, -245.68, 0.000, 0.000, 0.000, 23:40:51.362, 1547019651362
176, -142.40, 134.05, -67.82, -250.31, 0.000, 0.000, 0.000, 23:40:51.362, 1547019651362
177, -154.32, 67.03, -81.60, -243.30, 0.000, 0.000, 0.000, 23:40:51.378, 1547019651378
178, -180.96, -18.69, -105.37, -240.39, 0.000, 0.000, 0.000, 23:40:51.378, 1547019651378
179, -213.88, -112.18, -76.25, -260.07, 0.000, 0.000, 0.000, 23:40:51.378, 1547019651378
180, -230.74, -178.79, -120.45, -283.69, 0.000, 0.000, 0.000, 23:40:51.378, 1547019651378
181, -240.95, -225.41, -121.98, -268.31, 0.000, 0.000, 0.000, 23:40:51.392, 1547019651392
182, -263.73, -278.73, -120.26, -263.76, 0.000, 0.000, 0.000, 23:40:51.392, 1547019651392
183, -270.75, -316.39, -109.00, -262.17, 0.000, 0.000, 0.000, 23:40:51.407, 1547019651407
184, -267.21, -333.43, -94.69, -257.45, 0.000, 0.000, 0.000, 23:40:51.407, 1547019651407
185, -273.43, -348.85, -96.24, -252.38, 0.000, 0.000, 0.000, 23:40:51.408, 1547019651408
186, -282.58, -367.25, -115.28, -260.98, 0.000, 0.000, 0.000, 23:40:51.408, 1547019651408
187, -279.99, -377.06, -111.27, -246.73, 0.000, 0.000, 0.000, 23:40:51.422, 1547019651422
188, -275.82, -373.92, -104.72, -246.07, 0.000, 0.000, 0.000, 23:40:51.422, 1547019651422
189, -279.76, -381.65, -115.87, -265.98, 0.000, 0.000, 0.000, 23:40:51.437, 1547019651437
190, -278.49, -380.55, -150.12, -277.42, 0.000, 0.000, 0.000, 23:40:51.437, 1547019651437
191, -272.27, -372.96, -121.47, -273.06, 0.000, 0.000, 0.000, 23:40:51.438, 1547019651438
192, -260.15, -361.26, -107.66, -252.77, 0.000, 0.000, 0.000, 23:40:51.438, 1547019651438
193, -264.20, -351.54, -135.59, -274.62, 0.000, 0.000, 0.000, 23:40:51.459, 1547019651459
194, -258.51, -353.79, -115.71, -278.71, 0.000, 0.000, 0.000, 23:40:51.459, 1547019651459
195, -250.77, -343.45, -96.35, -261.43, 0.000, 0.000, 0.000, 23:40:51.467, 1547019651467
196, -235.99, -320.31, -116.64, -259.84, 0.000, 0.000, 0.000, 23:40:51.467, 1547019651467
197, -227.97, -302.68, -133.79, -262.89, 0.000, 0.000, 0.000, 23:40:51.468, 1547019651468
198, -236.11, -305.85, -130.91, -262.79, 0.000, 0.000, 0.000, 23:40:51.468, 1547019651468
199, -228.95, -308.64, -108.00, -249.53, 0.000, 0.000, 0.000, 23:40:51.483, 1547019651483
200, -220.16, -275.79, -106.59, -250.57, 0.000, 0.000, 0.000, 23:40:51.483, 1547019651483
0, -208.43, -286.46, -117.06, -259.86, 0.000, 0.000, 0.000, 23:40:51.483, 1547019651483
1, -210.17, -285.29, -121.50, -263.45, 0.000, 0.000, 0.000, 23:40:51.497, 1547019651497
2, -221.62, -250.57, -93.66, -240.78, 0.000, 0.000, 0.000, 23:40:51.497, 1547019651497
3, -203.53, -249.31, -81.89, -250.02, 0.000, 0.000, 0.000, 23:40:51.513, 1547019651513
4, -184.52, -246.75, -111.13, -262.52, 0.000, 0.000, 0.000, 23:40:51.513, 1547019651513
5, -179.47, -219.05, -123.47, -260.63, 0.000, 0.000, 0.000, 23:40:51.513, 1547019651513
6, -176.66, -195.33, -93.91, -246.21, 0.000, 0.000, 0.000, 23:40:51.513, 1547019651513
7, -180.76, -212.07, -98.54, -250.47, 0.000, 0.000, 0.000, 23:40:51.527, 1547019651527
8, -178.22, -178.29, -127.93, -265.99, 0.000, 0.000, 0.000, 23:40:51.527, 1547019651527
9, -153.57, -200.10, -101.39, -244.59, 0.000, 0.000, 0.000, 23:40:51.542, 1547019651542
10, -128.79, -147.55, -76.39, -232.42, 0.000, 0.000, 0.000, 23:40:51.542, 1547019651542
11, -130.36, -131.07, -136.57, -271.54, 0.000, 0.000, 0.000, 23:40:51.543, 1547019651543
12, -115.80, -93.42, -110.76, -257.74, 0.000, 0.000, 0.000, 23:40:51.543, 1547019651543
13, -73.57, -98.50, -110.53, -259.45, 0.000, 0.000, 0.000, 23:40:51.557, 1547019651557
14, -86.56, -90.36, -93.77, -242.76, 0.000, 0.000, 0.000, 23:40:51.557, 1547019651557
15, -75.55, -25.04, -87.84, -254.58, 0.000, 0.000, 0.000, 23:40:51.572, 1547019651572
16, -92.77, 5.03, -119.37, -264.11, 0.000, 0.000, 0.000, 23:40:51.572, 1547019651572
17, -112.40, 45.77, -112.44, -259.64, 0.000, 0.000, 0.000, 23:40:51.573, 1547019651573
18, -91.71, 73.71, -60.77, -230.97, 0.000, 0.000, 0.000, 23:40:51.573, 1547019651573
19, -99.28, 126.82, -64.75, -248.18, 0.000, 0.000, 0.000, 23:40:51.588, 1547019651588
20, -102.09, 165.98, -97.95, -246.02, 0.000, 0.000, 0.000, 23:40:51.588, 1547019651588
21, -117.03, 174.55, -90.31, -226.54, 0.000, 0.000, 0.000, 23:40:51.602, 1547019651602
22, -132.86, 186.70, -112.50, -280.31, 0.000, 0.000, 0.000, 23:40:51.602, 1547019651602
23, -140.11, 195.57, -119.72, -281.57, 0.000, 0.000, 0.000, 23:40:51.603, 1547019651603
24, -127.44, 212.31, -88.40, -254.60, 0.000, 0.000, 0.000, 23:40:51.603, 1547019651603
25, -134.24, 195.14, -78.51, -241.57, 0.000, 0.000, 0.000, 23:40:51.623, 1547019651623
26, -140.73, 178.49, -92.68, -247.17, 0.000, 0.000, 0.000, 23:40:51.623, 1547019651623
27, -139.02, 153.65, -91.90, -244.48, 0.000, 0.000, 0.000, 23:40:51.632, 1547019651632
28, -142.73, 121.57, -80.98, -238.03, 0.000, 0.000, 0.000, 23:40:51.632, 1547019651632
29, -166.82, 56.94, -110.59, -277.70, 0.000, 0.000, 0.000, 23:40:51.633, 1547019651633
30, -173.69, -9.49, -85.11, -258.34, 0.000, 0.000, 0.000, 23:40:51.633, 1547019651633
31, -164.23, -53.96, -96.00, -255.61, 0.000, 0.000, 0.000, 23:40:51.647, 1547019651647
32, -164.98, -111.55, -98.71, -247.14, 0.000, 0.000, 0.000, 23:40:51.647, 1547019651647
33, -177.96, -159.41, -100.08, -253.11, 0.000, 0.000, 0.000, 23:40:51.662, 1547019651662
34, -173.91, -203.50, -83.71, -242.83, 0.000, 0.000, 0.000, 23:40:51.662, 1547019651662
35, -169.81, -223.04, -88.54, -248.44, 0.000, 0.000, 0.000, 23:40:51.663, 1547019651663
36, -179.49, -248.55, -105.09, -254.18, 0.000, 0.000, 0.000, 23:40:51.663, 1547019651663
37, -180.34, -275.36, -108.14, -263.38, 0.000, 0.000, 0.000, 23:40:51.678, 1547019651678
38, -188.33, -293.86, -99.54, -253.20, 0.000, 0.000, 0.000, 23:40:51.678, 1547019651678
39, -171.10, -286.27, -92.59, -249.61, 0.000, 0.000, 0.000, 23:40:51.692, 1547019651692
40, -169.27, -271.43, -103.16, -255.80, 0.000, 0.000, 0.000, 23:40:51.692, 1547019651692
41, -184.68, -303.84, -116.10, -262.00, 0.000, 0.000, 0.000, 23:40:51.693, 1547019651693
42, -153.41, -295.13, -105.27, -252.77, 0.000, 0.000, 0.000, 23:40:51.693, 1547019651693
43, -170.54, -276.25, -107.01, -253.00, 0.000, 0.000, 0.000, 23:40:51.707, 1547019651707
44, -184.34, -298.77, -121.30, -263.26, 0.000, 0.000, 0.000, 23:40:51.707, 1547019651707
45, -157.07, -256.19, -110.29, -250.58, 0.000, 0.000, 0.000, 23:40:51.722, 1547019651722
46, -171.46, -294.71, -92.32, -244.34, 0.000, 0.000, 0.000, 23:40:51.722, 1547019651722
47, -144.57, -244.50, -100.05, -244.56, 0.000, 0.000, 0.000, 23:40:51.729, 1547019651729
48, -124.12, -222.32, -106.10, -253.70, 0.000, 0.000, 0.000, 23:40:51.729, 1547019651729
49, -84.76, -206.67, -109.78, -250.90, 0.000, 0.000, 0.000, 23:40:51.737, 1547019651737
50, -24.07, -140.35, -93.18, -241.92, 0.000, 0.000, 0.000, 23:40:51.737, 1547019651737
51, 21.84, -110.33, -89.72, -236.77, 0.000, 0.000, 0.000, 23:40:51.752, 1547019651752
52, 97.77, -67.56, -87.65, -236.03, 0.000, 0.000, 0.000, 23:40:51.752, 1547019651752
53, 29.37, 8.16, -99.26, -249.02, 0.000, 0.000, 0.000, 23:40:51.753, 1547019651753
54, 121.54, 48.55, -55.79, -212.90, 0.000, 0.000, 0.000, 23:40:51.753, 1547019651753
55, 143.35, 112.02, -36.85, -209.62, 0.000, 0.000, 0.000, 23:40:51.767, 1547019651767
56, 121.17, 128.30, -121.41, -266.10, 0.000, 0.000, 0.000, 23:40:51.767, 1547019651767
57, 127.80, 235.45, -113.33, -260.63, 0.000, 0.000, 0.000, 23:40:51.782, 1547019651782
58, 147.78, 267.23, -72.23, -243.41, 0.000, 0.000, 0.000, 23:40:51.782, 1547019651782
59, 177.14, 343.12, -70.41, -243.77, 0.000, 0.000, 0.000, 23:40:51.783, 1547019651783
60, 146.69, 338.79, -58.97, -233.79, 0.000, 0.000, 0.000, 23:40:51.783, 1547019651783
61, 148.26, 359.05, -89.76, -254.60, 0.000, 0.000, 0.000, 23:40:51.797, 1547019651797
62, 141.05, 366.26, -91.09, -245.65, 0.000, 0.000, 0.000, 23:40:51.797, 1547019651797
63, 116.60, 351.25, -73.22, -241.58, 0.000, 0.000, 0.000, 23:40:51.812, 1547019651812
64, 79.09, 318.32, -56.79, -217.25, 0.000, 0.000, 0.000, 23:40:51.812, 1547019651812
65, 56.67, 287.21, -83.97, -250.10, 0.000, 0.000, 0.000, 23:40:51.813, 1547019651813
66, 36.95, 261.22, -55.71, -246.17, 0.000, 0.000, 0.000, 23:40:51.813, 1547019651813
67, -5.67, 209.74, -80.70, -251.32, 0.000, 0.000, 0.000, 23:40:51.827, 1547019651827
68, -23.44, 174.68, -81.72, -242.57, 0.000, 0.000, 0.000, 23:40:51.827, 1547019651827
69, -69.58, 110.57, -85.27, -246.38, 0.000, 0.000, 0.000, 23:40:51.842, 1547019651842
70, -102.62, 42.86, -87.67, -249.53, 0.000, 0.000, 0.000, 23:40:51.842, 1547019651842
71, -131.46, -31.82, -91.25, -248.32, 0.000, 0.000, 0.000, 23:40:51.843, 1547019651843
72, -161.18, -98.89, -87.08, -262.10, 0.000, 0.000, 0.000, 23:40:51.843, 1547019651843
73, -195.77, -179.94, -104.72, -249.83, 0.000, 0.000, 0.000, 23:40:51.857, 1547019651857
74, -218.89, -238.50, -118.85, -264.65, 0.000, 0.000, 0.000, 23:40:51.857, 1547019651857
75, -224.83, -276.33, -81.94, -237.58, 0.000, 0.000, 0.000, 23:40:51.872, 1547019651872
76, -241.11, -308.88, -88.26, -239.36, 0.000, 0.000, 0.000, 23:40:51.872, 1547019651872
77, -274.79, -350.18, -121.40, -267.09, 0.000, 0.000, 0.000, 23:40:51.873, 1547019651873
78, -275.77, -368.23, -105.27, -260.11, 0.000, 0.000, 0.000, 23:40:51.873, 1547019651873
79, -278.26, -382.28, -116.07, -279.85, 0.000, 0.000, 0.000, 23:40:51.887, 1547019651887
80, -292.96, -393.49, -141.86, -277.59, 0.000, 0.000, 0.000, 23:40:51.887, 1547019651887
81, -297.65, -401.47, -137.03, -276.93, 0.000, 0.000, 0.000, 23:40:51.902, 1547019651902
82, -287.44, -399.30, -103.35, -265.49, 0.000, 0.000, 0.000, 23:40:51.902, 1547019651902
83, -285.67, -386.86, -120.69, -272.73, 0.000, 0.000, 0.000, 23:40:51.904, 1547019651904
84, -277.03, -380.78, -136.38, -281.41, 0.000, 0.000, 0.000, 23:40:51.904, 1547019651904
85, -278.56, -372.46, -144.52, -272.16, 0.000, 0.000, 0.000, 23:40:51.918, 1547019651918
86, -283.79, -388.63, -132.68, -275.37, 0.000, 0.000, 0.000, 23:40:51.918, 1547019651918
87, -263.69, -361.31, -108.73, -258.68, 0.000, 0.000, 0.000, 23:40:51.932, 1547019651932
88, -256.82, -332.89, -117.99, -258.64, 0.000, 0.000, 0.000, 23:40:51.932, 1547019651932
89, -265.11, -348.97, -127.45, -265.58, 0.000, 0.000, 0.000, 23:40:51.933, 1547019651933
90, -246.49, -331.14, -111.05, -252.27, 0.000, 0.000, 0.000, 23:40:51.933, 1547019651933
91, -245.42, -342.98, -101.96, -243.80, 0.000, 0.000, 0.000, 23:40:51.947, 1547019651947
92, -223.27, -322.04, -109.48, -254.91, 0.000, 0.000, 0.000, 23:40:51.947, 1547019651947
93, -231.75, -279.22, -121.07, -268.35, 0.000, 0.000, 0.000, 23:40:51.962, 1547019651962
94, -200.09, -251.62, -91.71, -252.52, 0.000, 0.000, 0.000, 23:40:51.962, 1547019651962
95, -181.16, -264.21, -114.03, -260.27, 0.000, 0.000, 0.000, 23:40:51.963, 1547019651963
96, -208.25, -257.10, -112.25, -258.36, 0.000, 0.000, 0.000, 23:40:51.963, 1547019651963
97, -165.49, -251.69, -95.32, -248.81, 0.000, 0.000, 0.000, 23:40:51.977, 1547019651977
98, -144.26, -189.91, -88.10, -243.66, 0.000, 0.000, 0.000, 23:40:51.977, 1547019651977
99, -70.21, -124.90, -97.40, -239.76, 0.000, 0.000, 0.000, 23:40:51.992, 1547019651992
100, 4.58, -56.69, -87.05, -242.24, 0.000, 0.000, 0.000, 23:40:51.992, 1547019651992
101, 17.94, -35.45, -99.96, -245.44, 0.000, 0.000, 0.000, 23:40:51.993, 1547019651993
102, 32.82, -53.36, -106.72, -265.26, 0.000, 0.000, 0.000, 23:40:51.993, 1547019651993
103, 43.42, -8.08, -89.58, -248.31, 0.000, 0.000, 0.000, 23:40:52.007, 1547019652007
104, 50.89, 20.82, -69.66, -232.37, 0.000, 0.000, 0.000, 23:40:52.007, 1547019652007
105, 34.42, 62.75, -64.50, -222.92, 0.000, 0.000, 0.000, 23:40:52.022, 1547019652022
106, 30.09, 90.61, -62.49, -219.99, 0.000, 0.000, 0.000, 23:40:52.022, 1547019652022
107, 34.41, 128.72, -92.75, -241.86, 0.000, 0.000, 0.000, 23:40:52.023, 1547019652023
108, 14.09, 160.93, -98.24, -249.26, 0.000, 0.000, 0.000, 23:40:52.023, 1547019652023
109, -13.67, 159.68, -65.28, -227.10, 0.000, 0.000, 0.000, 23:40:52.037, 1547019652037
110, -32.53, 146.78, -69.84, -233.31, 0.000, 0.000, 0.000, 23:40:52.037, 1547019652037
111, -59.77, 140.07, -79.43, -242.55, 0.000, 0.000, 0.000, 23:40:52.052, 1547019652052
112, -86.06, 109.67, -83.50, -231.69, 0.000, 0.000, 0.000, 23:40:52.052, 1547019652052
113, -134.89, 48.65, -121.58, -272.39, 0.000, 0.000, 0.000, 23:40:52.053, 1547019652053
114, -151.02, -13.93, -97.26, -263.23, 0.000, 0.000, 0.000, 23:40:52.053, 1547019652053
115, -167.44, -64.59, -98.12, -256.89, 0.000, 0.000, 0.000, 23:40:52.067, 1547019652067
116, -191.73, -123.05, -98.65, -258.87, 0.000, 0.000, 0.000, 23:40:52.067, 1547019652067
117, -225.16, -178.42, -105.36, -263.40, 0.000, 0.000, 0.000, 23:40:52.082, 1547019652082
118, -239.84, -221.86, -99.67, -254.80, 0.000, 0.000, 0.000, 23:40:52.082, 1547019652082
119, -247.53, -255.50, -102.67, -264.31, 0.000, 0.000, 0.000, 23:40:52.083, 1547019652083
120, -250.26, -273.65, -110.11, -265.35, 0.000, 0.000, 0.000, 23:40:52.083, 1547019652083
121, -264.22, -292.40, -116.26, -256.09, 0.000, 0.000, 0.000, 23:40:52.097, 1547019652097
122, -263.90, -305.39, -99.07, -250.70, 0.000, 0.000, 0.000, 23:40:52.097, 1547019652097
123, -261.10, -304.12, -100.68, -258.83, 0.000, 0.000, 0.000, 23:40:52.112, 1547019652112
124, -259.94, -305.91, -94.21, -246.99, 0.000, 0.000, 0.000, 23:40:52.112, 1547019652112
125, -274.20, -307.17, -126.48, -280.96, 0.000, 0.000, 0.000, 23:40:52.113, 1547019652113
126, -269.07, -313.87, -116.83, -273.05, 0.000, 0.000, 0.000, 23:40:52.113, 1547019652113
127, -256.45, -301.77, -115.90, -264.59, 0.000, 0.000, 0.000, 23:40:52.127, 1547019652127
128, -260.44, -299.13, -131.27, -268.84, 0.000, 0.000, 0.000, 23:40:52.127, 1547019652127
129, -261.60, -298.62, -131.89, -257.45, 0.000, 0.000, 0.000, 23:40:52.142, 1547019652142
130, -250.73, -298.33, -122.32, -270.86, 0.000, 0.000, 0.000, 23:40:52.142, 1547019652142
131, -239.91, -287.58, -130.93, -271.55, 0.000, 0.000, 0.000, 23:40:52.143, 1547019652143
132, -235.03, -272.96, -127.16, -270.69, 0.000, 0.000, 0.000, 23:40:52.143, 1547019652143
133, -230.93, -273.41, -133.25, -271.17, 0.000, 0.000, 0.000, 23:40:52.157, 1547019652157
134, -227.14, -275.59, -115.85, -260.73, 0.000, 0.000, 0.000, 23:40:52.157, 1547019652157
135, -221.20, -265.53, -111.91, -254.87, 0.000, 0.000, 0.000, 23:40:52.172, 1547019652172
136, -205.48, -233.06, -110.91, -256.58, 0.000, 0.000, 0.000, 23:40:52.172, 1547019652172
137, -215.04, -245.89, -118.60, -256.36, 0.000, 0.000, 0.000, 23:40:52.173, 1547019652173
138, -213.84, -254.44, -102.77, -256.29, 0.000, 0.000, 0.000, 23:40:52.173, 1547019652173
139, -192.35, -224.49, -103.13, -253.78, 0.000, 0.000, 0.000, 23:40:52.194, 1547019652194
140, -173.54, -219.67, -99.45, -245.27, 0.000, 0.000, 0.000, 23:40:52.194, 1547019652194
141, -203.37, -218.18, -108.98, -251.88, 0.000, 0.000, 0.000, 23:40:52.202, 1547019652202
142, -169.16, -168.75, -91.77, -242.22, 0.000, 0.000, 0.000, 23:40:52.202, 1547019652202
143, -157.23, -199.91, -86.14, -235.72, 0.000, 0.000, 0.000, 23:40:52.203, 1547019652203
144, -168.95, -218.89, -94.97, -247.13, 0.000, 0.000, 0.000, 23:40:52.203, 1547019652203
145, -178.31, -172.02, -117.02, -261.17, 0.000, 0.000, 0.000, 23:40:52.218, 1547019652218
146, -127.64, -141.98, -105.01, -260.36, 0.000, 0.000, 0.000, 23:40:52.218, 1547019652218
147, -66.02, -84.29, -104.00, -259.44, 0.000, 0.000, 0.000, 23:40:52.232, 1547019652232
148, -67.80, -104.13, -82.63, -239.69, 0.000, 0.000, 0.000, 23:40:52.232, 1547019652232
149, 2.84, -17.07, -78.23, -236.02, 0.000, 0.000, 0.000, 23:40:52.233, 1547019652233
150, 48.12, -30.25, -67.74, -230.70, 0.000, 0.000, 0.000, 23:40:52.233, 1547019652233
151, 40.51, 29.72, -81.63, -243.71, 0.000, 0.000, 0.000, 23:40:52.247, 1547019652247
152, 42.04, 82.30, -86.83, -233.48, 0.000, 0.000, 0.000, 23:40:52.247, 1547019652247
153, 48.96, 127.60, -107.54, -221.29, 0.000, 0.000, 0.000, 23:40:52.262, 1547019652262
154, -3.91, 102.32, -109.05, -258.86, 0.000, 0.000, 0.000, 23:40:52.262, 1547019652262
155, 30.06, 137.38, -109.91, -270.59, 0.000, 0.000, 0.000, 23:40:52.263, 1547019652263
156, -12.97, 168.57, -74.48, -249.16, 0.000, 0.000, 0.000, 23:40:52.263, 1547019652263
157, -49.47, 128.19, -66.52, -231.24, 0.000, 0.000, 0.000, 23:40:52.278, 1547019652278
158, -67.61, 147.13, -63.71, -217.66, 0.000, 0.000, 0.000, 23:40:52.278, 1547019652278
159, -104.50, 143.14, -74.40, -227.86, 0.000, 0.000, 0.000, 23:40:52.292, 1547019652292
160, -120.67, 153.94, -99.86, -260.29, 0.000, 0.000, 0.000, 23:40:52.292, 1547019652292
161, -153.99, 137.07, -129.01, -289.54, 0.000, 0.000, 0.000, 23:40:52.293, 1547019652293
162, -162.38, 129.63, -97.21, -262.42, 0.000, 0.000, 0.000, 23:40:52.293, 1547019652293
163, -157.73, 136.84, -61.83, -231.73, 0.000, 0.000, 0.000, 23:40:52.307, 1547019652307
164, -168.92, 117.22, -65.65, -236.02, 0.000, 0.000, 0.000, 23:40:52.307, 1547019652307
165, -194.21, 71.91, -99.53, -252.61, 0.000, 0.000, 0.000, 23:40:52.322, 1547019652322
166, -195.34, 26.45, -68.24, -230.10, 0.000, 0.000, 0.000, 23:40:52.322, 1547019652322
167, -204.71, -29.95, -90.74, -238.33, 0.000, 0.000, 0.000, 23:40:52.323, 1547019652323
168, -210.81, -74.27, -90.17, -240.76, 0.000, 0.000, 0.000, 23:40:52.323, 1547019652323
169, -226.83, -139.57, -96.21, -253.89, 0.000, 0.000, 0.000, 23:40:52.337, 1547019652337
170, -235.37, -185.91, -92.56, -249.53, 0.000, 0.000, 0.000, 23:40:52.337, 1547019652337
171, -230.62, -217.94, -94.24, -262.59, 0.000, 0.000, 0.000, 23:40:52.352, 1547019652352
172, -241.96, -252.93, -132.37, -267.09, 0.000, 0.000, 0.000, 23:40:52.352, 1547019652352
173, -238.12, -267.39, -116.87, -254.94, 0.000, 0.000, 0.000, 23:40:52.353, 1547019652353
174, -238.32, -288.72, -92.77, -249.18, 0.000, 0.000, 0.000, 23:40:52.353, 1547019652353
175, -232.27, -300.48, -112.31, -256.08, 0.000, 0.000, 0.000, 23:40:52.367, 1547019652367
176, -234.95, -303.86, -132.05, -264.27, 0.000, 0.000, 0.000, 23:40:52.367, 1547019652367
177, -240.24, -305.69, -138.05, -272.84, 0.000, 0.000, 0.000, 23:40:52.382, 1547019652382
178, -232.37, -308.15, -112.95, -268.21, 0.000, 0.000, 0.000, 23:40:52.382, 1547019652382
179, -219.87, -293.86, -102.96, -252.37, 0.000, 0.000, 0.000, 23:40:52.383, 1547019652383
180, -216.95, -291.31, -101.26, -250.57, 0.000, 0.000, 0.000, 23:40:52.383, 1547019652383
181, -220.92, -291.79, -93.54, -237.43, 0.000, 0.000, 0.000, 23:40:52.398, 1547019652398
182, -216.65, -294.38, -98.94, -235.86, 0.000, 0.000, 0.000, 23:40:52.398, 1547019652398
183, -207.52, -281.50, -109.02, -263.15, 0.000, 0.000, 0.000, 23:40:52.412, 1547019652412
184, -214.14, -283.35, -143.61, -295.19, 0.000, 0.000, 0.000, 23:40:52.412, 1547019652412
185, -211.46, -268.85, -145.14, -284.36, 0.000, 0.000, 0.000, 23:40:52.413, 1547019652413
186, -205.85, -269.88, -111.12, -260.79, 0.000, 0.000, 0.000, 23:40:52.413, 1547019652413
187, -188.35, -260.32, -110.52, -251.56, 0.000, 0.000, 0.000, 23:40:52.427, 1547019652427
188, -197.27, -246.06, -116.86, -255.19, 0.000, 0.000, 0.000, 23:40:52.427, 1547019652427
189, -202.05, -260.10, -128.28, -263.82, 0.000, 0.000, 0.000, 23:40:52.442, 1547019652442
190, -191.84, -237.82, -101.29, -248.20, 0.000, 0.000, 0.000, 23:40:52.442, 1547019652442
191, -164.62, -234.24, -91.46, -249.15, 0.000, 0.000, 0.000, 23:40:52.443, 1547019652443
192, -163.10, -226.43, -103.62, -252.35, 0.000, 0.000, 0.000, 23:40:52.443, 1547019652443
193, -193.59, -208.70, -124.98, -272.28, 0.000, 0.000, 0.000, 23:40:52.457, 1547019652457
194, -118.06, -174.43, -95.33, -252.85, 0.000, 0.000, 0.000, 23:40:52.457, 1547019652457
195, -177.30, -192.16, -82.21, -243.75, 0.000, 0.000, 0.000, 23:40:52.472, 1547019652472
196, -123.44, -166.18, -69.76, -241.00, 0.000, 0.000, 0.000, 23:40:52.472, 1547019652472
197, -144.08, -191.01, -115.75, -257.24, 0.000, 0.000, 0.000, 23:40:52.473, 1547019652473
198, -89.78, -109.14, -91.79, -241.00, 0.000, 0.000, 0.000, 23:40:52.473, 1547019652473
199, -19.17, -41.21, -74.55, -229.12, 0.000, 0.000, 0.000, 23:40:52.487, 1547019652487
200, 13.59, -7.75, -133.23, -272.55, 0.000, 0.000, 0.000, 23:40:52.487, 1547019652487
0, 63.64, 33.26, -119.82, -262.98, 0.000, 0.000, 0.000, 23:40:52.488, 1547019652488
1, 49.23, 45.17, -87.25, -239.36, 0.000, 0.000, 0.000, 23:40:52.502, 1547019652502
2, 106.36, 158.22, -53.94, -211.09, 0.000, 0.000, 0.000, 23:40:52.502, 1547019652502
3, 74.94, 168.18, -68.37, -252.00, 0.000, 0.000, 0.000, 23:40:52.517, 1547019652517
4, 75.96, 208.65, -95.70, -260.98, 0.000, 0.000, 0.000, 23:40:52.517, 1547019652517
5, 89.76, 248.25, -89.71, -245.77, 0.000, 0.000, 0.000, 23:40:52.524, 1547019652524
6, 91.45, 286.77, -74.96, -232.29, 0.000, 0.000, 0.000, 23:40:52.524, 1547019652524
7, 65.98, 290.91, -53.25, -231.43, 0.000, 0.000, 0.000, 23:40:52.532, 1547019652532
8, 45.06, 270.25, -92.67, -238.85, 0.000, 0.000, 0.000, 23:40:52.532, 1547019652532
9, 19.54, 255.90, -93.58, -249.09, 0.000, 0.000, 0.000, 23:40:52.547, 1547019652547
10, -7.23, 187.47, -72.63, -238.68, 0.000, 0.000, 0.000, 23:40:52.547, 1547019652547
11, -13.66, 179.39, -59.01, -220.15, 0.000, 0.000, 0.000, 23:40:52.548, 1547019652548
12, -55.00, 146.51, -75.02, -239.33, 0.000, 0.000, 0.000, 23:40:52.548, 1547019652548
13, -80.50, 94.16, -79.41, -241.06, 0.000, 0.000, 0.000, 23:40:52.562, 1547019652562
14, -85.84, 81.17, -105.77, -245.97, 0.000, 0.000, 0.000, 23:40:52.562, 1547019652562
15, -102.77, 56.17, -98.73, -251.91, 0.000, 0.000, 0.000, 23:40:52.577, 1547019652577
16, -126.72, 26.88, -75.43, -238.42, 0.000, 0.000, 0.000, 23:40:52.577, 1547019652577
17, -151.79, -7.66, -99.79, -264.09, 0.000, 0.000, 0.000, 23:40:52.578, 1547019652578
18, -150.90, -31.36, -100.22, -255.77, 0.000, 0.000, 0.000, 23:40:52.578, 1547019652578
19, -172.34, -70.70, -104.78, -253.44, 0.000, 0.000, 0.000, 23:40:52.592, 1547019652592
20, -193.82, -117.29, -107.13, -251.02, 0.000, 0.000, 0.000, 23:40:52.592, 1547019652592
21, -208.86, -163.15, -86.33, -250.40, 0.000, 0.000, 0.000, 23:40:52.607, 1547019652607
22, -209.03, -199.39, -86.35, -247.86, 0.000, 0.000, 0.000, 23:40:52.607, 1547019652607
23, -225.86, -236.25, -99.74, -243.61, 0.000, 0.000, 0.000, 23:40:52.608, 1547019652608
24, -238.38, -269.72, -120.38, -260.88, 0.000, 0.000, 0.000, 23:40:52.608, 1547019652608
25, -238.58, -294.58, -106.63, -254.60, 0.000, 0.000, 0.000, 23:40:52.622, 1547019652622
26, -235.47, -296.78, -101.98, -259.62, 0.000, 0.000, 0.000, 23:40:52.622, 1547019652622
27, -243.23, -308.52, -98.84, -254.64, 0.000, 0.000, 0.000, 23:40:52.637, 1547019652637
28, -245.41, -323.76, -103.74, -248.81, 0.000, 0.000, 0.000, 23:40:52.637, 1547019652637
29, -245.89, -332.14, -92.77, -244.91, 0.000, 0.000, 0.000, 23:40:52.638, 1547019652638
30, -243.62, -333.31, -117.89, -265.66, 0.000, 0.000, 0.000, 23:40:52.638, 1547019652638
31, -242.87, -327.04, -130.26, -269.21, 0.000, 0.000, 0.000, 23:40:52.652, 1547019652652
32, -243.16, -325.90, -140.00, -277.07, 0.000, 0.000, 0.000, 23:40:52.652, 1547019652652
33, -246.42, -330.40, -124.17, -272.91, 0.000, 0.000, 0.000, 23:40:52.667, 1547019652667
34, -224.07, -306.68, -99.50, -246.38, 0.000, 0.000, 0.000, 23:40:52.667, 1547019652667
35, -226.72, -307.16, -119.04, -268.47, 0.000, 0.000, 0.000, 23:40:52.668, 1547019652668
36, -228.60, -299.08, -124.22, -259.80, 0.000, 0.000, 0.000, 23:40:52.668, 1547019652668
37, -224.86, -296.74, -105.12, -253.07, 0.000, 0.000, 0.000, 23:40:52.682, 1547019652682
38, -214.88, -284.24, -113.42, -262.07, 0.000, 0.000, 0.000, 23:40:52.682, 1547019652682
39, -219.29, -280.09, -117.75, -275.20, 0.000, 0.000, 0.000, 23:40:52.697, 1547019652697
40, -209.04, -284.39, -117.47, -257.70, 0.000, 0.000, 0.000, 23:40:52.697, 1547019652697
41, -211.30, -275.08, -98.59, -246.66, 0.000, 0.000, 0.000, 23:40:52.699, 1547019652699
42, -201.15, -257.41, -89.35, -248.41, 0.000, 0.000, 0.000, 23:40:52.699, 1547019652699
43, -188.97, -232.41, -96.11, -245.03, 0.000, 0.000, 0.000, 23:40:52.712, 1547019652712
44, -191.26, -223.11, -124.61, -255.59, 0.000, 0.000, 0.000, 23:40:52.712, 1547019652712
45, -202.67, -259.84, -108.08, -254.73, 0.000, 0.000, 0.000, 23:40:52.727, 1547019652727
46, -186.27, -236.58, -90.37, -248.01, 0.000, 0.000, 0.000, 23:40:52.727, 1547019652727
47, -173.74, -216.93, -103.47, -247.97, 0.000, 0.000, 0.000, 23:40:52.728, 1547019652728
48, -171.03, -202.96, -97.44, -236.65, 0.000, 0.000, 0.000, 23:40:52.728, 1547019652728
49, -171.70, -204.30, -109.10, -257.41, 0.000, 0.000, 0.000, 23:40:52.742, 1547019652742
50, -156.02, -177.71, -92.78, -250.58, 0.000, 0.000, 0.000, 23:40:52.742, 1547019652742
51, -150.62, -160.59, -101.78, -259.30, 0.000, 0.000, 0.000, 23:40:52.757, 1547019652757
52, -149.09, -219.50, -106.15, -258.91, 0.000, 0.000, 0.000, 23:40:52.757, 1547019652757
53, -173.94, -187.02, -121.61, -262.11, 0.000, 0.000, 0.000, 23:40:52.758, 1547019652758
54, -143.59, -151.91, -109.29, -252.59, 0.000, 0.000, 0.000, 23:40:52.758, 1547019652758
55, -107.67, -103.60, -105.59, -259.65, 0.000, 0.000, 0.000, 23:40:52.772, 1547019652772
56, -144.81, -165.46, -108.84, -249.05, 0.000, 0.000, 0.000, 23:40:52.772, 1547019652772
57, -137.28, -147.02, -101.48, -249.89, 0.000, 0.000, 0.000, 23:40:52.788, 1547019652788
58, -97.74, -141.53, -85.67, -234.77, 0.000, 0.000, 0.000, 23:40:52.788, 1547019652788
59, -49.95, -77.62, -88.07, -244.07, 0.000, 0.000, 0.000, 23:40:52.788, 1547019652788
60, -30.99, -6.22, -107.35, -258.31, 0.000, 0.000, 0.000, 23:40:52.788, 1547019652788
61, 100.66, 108.70, -51.44, -220.19, 0.000, 0.000, 0.000, 23:40:52.802, 1547019652802
62, 40.84, 78.71, -81.84, -245.52, 0.000, 0.000, 0.000, 23:40:52.802, 1547019652802
63, 148.97, 230.75, -79.17, -236.87, 0.000, 0.000, 0.000, 23:40:52.817, 1547019652817
64, 99.95, 199.77, -56.27, -222.63, 0.000, 0.000, 0.000, 23:40:52.817, 1547019652817
65, 108.91, 238.04, -30.96, -202.39, 0.000, 0.000, 0.000, 23:40:52.818, 1547019652818
66, 151.81, 331.72, -85.65, -250.49, 0.000, 0.000, 0.000, 23:40:52.818, 1547019652818
67, 94.89, 364.64, -73.94, -223.28, 0.000, 0.000, 0.000, 23:40:52.832, 1547019652832
68, 158.49, 412.77, -96.45, -242.81, 0.000, 0.000, 0.000, 23:40:52.832, 1547019652832
69, 144.70, 434.34, -63.93, -226.22, 0.000, 0.000, 0.000, 23:40:52.847, 1547019652847
70, 106.11, 422.14, -55.64, -229.92, 0.000, 0.000, 0.000, 23:40:52.847, 1547019652847
71, 143.60, 450.21, -33.77, -228.55, 0.000, 0.000, 0.000, 23:40:52.848, 1547019652848
72, 123.03, 451.45, -64.07, -232.24, 0.000, 0.000, 0.000, 23:40:52.848, 1547019652848
73, 114.55, 463.63, -109.23, -256.03, 0.000, 0.000, 0.000, 23:40:52.862, 1547019652862
74, 112.80, 455.95, -67.10, -243.32, 0.000, 0.000, 0.000, 23:40:52.862, 1547019652862
75, 89.42, 428.23, -53.78, -236.47, 0.000, 0.000, 0.000, 23:40:52.877, 1547019652877
76, 67.29, 385.75, -89.34, -251.71, 0.000, 0.000, 0.000, 23:40:52.877, 1547019652877
77, 51.35, 356.52, -68.64, -238.59, 0.000, 0.000, 0.000, 23:40:52.878, 1547019652878
78, 28.24, 308.95, -68.59, -236.62, 0.000, 0.000, 0.000, 23:40:52.878, 1547019652878
79, 14.24, 278.64, -48.76, -215.44, 0.000, 0.000, 0.000, 23:40:52.892, 1547019652892
80, -20.12, 230.20, -90.61, -238.52, 0.000, 0.000, 0.000, 23:40:52.892, 1547019652892
81, -44.85, 179.60, -84.64, -252.96, 0.000, 0.000, 0.000, 23:40:52.907, 1547019652907
82, -69.89, 109.36, -64.91, -239.31, 0.000, 0.000, 0.000, 23:40:52.907, 1547019652907
83, -97.99, 41.71, -89.60, -255.79, 0.000, 0.000, 0.000, 23:40:52.908, 1547019652908
84, -144.66, -53.92, -121.28, -266.66, 0.000, 0.000, 0.000, 23:40:52.908, 1547019652908
85, -170.37, -131.12, -100.40, -245.92, 0.000, 0.000, 0.000, 23:40:52.929, 1547019652929
86, -197.06, -193.39, -96.39, -250.04, 0.000, 0.000, 0.000, 23:40:52.929, 1547019652929
87, -224.60, -247.82, -91.15, -254.29, 0.000, 0.000, 0.000, 23:40:52.937, 1547019652937
88, -252.53, -301.36, -111.10, -264.88, 0.000, 0.000, 0.000, 23:40:52.937, 1547019652937
89, -274.11, -339.26, -126.73, -272.38, 0.000, 0.000, 0.000, 23:40:52.938, 1547019652938
90, -279.56, -365.93, -113.79, -262.63, 0.000, 0.000, 0.000, 23:40:52.938, 1547019652938
91, -288.81, -374.71, -133.01, -273.77, 0.000, 0.000, 0.000, 23:40:52.953, 1547019652953
92, -290.59, -379.24, -126.30, -269.50, 0.000, 0.000, 0.000, 23:40:52.953, 1547019652953
93, -300.75, -395.89, -118.81, -263.63, 0.000, 0.000, 0.000, 23:40:52.967, 1547019652967
94, -298.29, -398.50, -107.95, -251.97, 0.000, 0.000, 0.000, 23:40:52.967, 1547019652967
95, -296.79, -399.24, -143.68, -277.85, 0.000, 0.000, 0.000, 23:40:52.968, 1547019652968
96, -303.87, -405.01, -147.09, -287.29, 0.000, 0.000, 0.000, 23:40:52.968, 1547019652968
97, -294.50, -398.63, -116.00, -262.89, 0.000, 0.000, 0.000, 23:40:52.982, 1547019652982
98, -278.06, -379.98, -94.27, -248.35, 0.000, 0.000, 0.000, 23:40:52.982, 1547019652982
99, -280.58, -382.17, -123.70, -262.43, 0.000, 0.000, 0.000, 23:40:52.997, 1547019652997
100, -282.79, -373.09, -120.83, -262.10, 0.000, 0.000, 0.000, 23:40:52.997, 1547019652997
101, -269.18, -369.29, -108.45, -250.51, 0.000, 0.000, 0.000, 23:40:52.998, 1547019652998
102, -262.55, -348.20, -117.96, -269.71, 0.000, 0.000, 0.000, 23:40:52.998, 1547019652998
103, -264.94, -356.73, -131.84, -275.11, 0.000, 0.000, 0.000, 23:40:53.013, 1547019653013
104, -250.07, -331.11, -128.63, -280.21, 0.000, 0.000, 0.000, 23:40:53.013, 1547019653013
105, -264.05, -340.55, -104.54, -261.31, 0.000, 0.000, 0.000, 23:40:53.028, 1547019653028
106, -232.26, -317.88, -91.18, -245.99, 0.000, 0.000, 0.000, 23:40:53.028, 1547019653028
107, -218.56, -298.31, -114.53, -258.81, 0.000, 0.000, 0.000, 23:40:53.028, 1547019653028
108, -224.47, -285.51, -128.49, -264.98, 0.000, 0.000, 0.000, 23:40:53.028, 1547019653028
109, -245.54, -322.14, -119.61, -256.60, 0.000, 0.000, 0.000, 23:40:53.042, 1547019653042
110, -211.87, -276.00, -95.88, -243.48, 0.000, 0.000, 0.000, 23:40:53.042, 1547019653042
111, -197.84, -275.69, -106.81, -259.26, 0.000, 0.000, 0.000, 23:40:53.057, 1547019653057
112, -206.30, -259.21, -93.32, -251.80, 0.000, 0.000, 0.000, 23:40:53.057, 1547019653057
113, -206.21, -252.13, -126.24, -263.24, 0.000, 0.000, 0.000, 23:40:53.059, 1547019653059
114, -178.09, -232.58, -115.36, -259.00, 0.000, 0.000, 0.000, 23:40:53.059, 1547019653059
115, -228.03, -266.37, -97.63, -240.67, 0.000, 0.000, 0.000, 23:40:53.072, 1547019653072
116, -231.56, -261.17, -112.47, -253.61, 0.000, 0.000, 0.000, 23:40:53.072, 1547019653072
117, -184.50, -219.81, -103.04, -254.27, 0.000, 0.000, 0.000, 23:40:53.087, 1547019653087
118, -145.30, -174.32, -92.86, -253.92, 0.000, 0.000, 0.000, 23:40:53.087, 1547019653087
119, -145.29, -160.34, -94.57, -244.86, 0.000, 0.000, 0.000, 23:40:53.088, 1547019653088
120, -217.84, -208.66, -95.24, -243.82, 0.000, 0.000, 0.000, 23:40:53.088, 1547019653088
121, -150.11, -195.49, -86.26, -235.98, 0.000, 0.000, 0.000, 23:40:53.102, 1547019653102
122, -97.82, -148.65, -69.40, -221.18, 0.000, 0.000, 0.000, 23:40:53.102, 1547019653102
123, -69.10, -112.96, -117.41, -243.13, 0.000, 0.000, 0.000, 23:40:53.117, 1547019653117
124, -33.10, -47.57, -132.93, -277.03, 0.000, 0.000, 0.000, 23:40:53.117, 1547019653117
125, 30.60, 16.45, -103.70, -260.36, 0.000, 0.000, 0.000, 23:40:53.118, 1547019653118
126, 90.52, 8.66, -74.41, -238.64, 0.000, 0.000, 0.000, 23:40:53.118, 1547019653118
127, 77.97, 94.63, -59.86, -231.96, 0.000, 0.000, 0.000, 23:40:53.132, 1547019653132
128, 127.35, 219.48, -86.08, -247.51, 0.000, 0.000, 0.000, 23:40:53.132, 1547019653132
129, 171.35, 243.05, -81.53, -236.76, 0.000, 0.000, 0.000, 23:40:53.147, 1547019653147
130, 136.43, 277.04, -66.09, -229.78, 0.000, 0.000, 0.000, 23:40:53.147, 1547019653147
131, 159.36, 354.29, -60.10, -227.81, 0.000, 0.000, 0.000, 23:40:53.148, 1547019653148
132, 167.02, 405.76, -52.45, -214.82, 0.000, 0.000, 0.000, 23:40:53.148, 1547019653148
133, 139.06, 430.78, -43.87, -212.66, 0.000, 0.000, 0.000, 23:40:53.162, 1547019653162
134, 168.07, 421.95, -82.07, -240.59, 0.000, 0.000, 0.000, 23:40:53.162, 1547019653162
135, 125.59, 435.84, -94.45, -261.05, 0.000, 0.000, 0.000, 23:40:53.178, 1547019653178
136, 111.37, 431.85, -87.31, -248.40, 0.000, 0.000, 0.000, 23:40:53.178, 1547019653178
137, 87.23, 396.12, -32.68, -217.82, 0.000, 0.000, 0.000, 23:40:53.178, 1547019653178
138, 83.06, 358.75, -36.17, -192.17, 0.000, 0.000, 0.000, 23:40:53.178, 1547019653178
139, 54.28, 303.46, -70.86, -237.77, 0.000, 0.000, 0.000, 23:40:53.199, 1547019653199
140, 15.62, 242.83, -104.78, -260.84, 0.000, 0.000, 0.000, 23:40:53.199, 1547019653199
141, -9.12, 181.70, -101.58, -254.91, 0.000, 0.000, 0.000, 23:40:53.207, 1547019653207
142, -7.94, 143.97, -69.95, -241.67, 0.000, 0.000, 0.000, 23:40:53.207, 1547019653207
143, -36.31, 84.10, -78.02, -239.11, 0.000, 0.000, 0.000, 23:40:53.208, 1547019653208
144, -56.47, 22.51, -99.75, -242.04, 0.000, 0.000, 0.000, 23:40:53.208, 1547019653208
145, -96.99, -65.75, -105.68, -259.58, 0.000, 0.000, 0.000, 23:40:53.222, 1547019653222
146, -114.10, -126.69, -102.24, -256.40, 0.000, 0.000, 0.000, 23:40:53.222, 1547019653222
147, -141.20, -193.39, -96.44, -248.31, 0.000, 0.000, 0.000, 23:40:53.237, 1547019653237
148, -165.66, -246.15, -101.23, -255.81, 0.000, 0.000, 0.000, 23:40:53.237, 1547019653237
149, -194.46, -304.15, -107.33, -262.86, 0.000, 0.000, 0.000, 23:40:53.238, 1547019653238
150, -216.22, -331.08, -118.55, -266.75, 0.000, 0.000, 0.000, 23:40:53.238, 1547019653238
151, -231.81, -355.66, -137.88, -278.77, 0.000, 0.000, 0.000, 23:40:53.252, 1547019653252
152, -256.42, -377.15, -124.48, -264.65, 0.000, 0.000, 0.000, 23:40:53.252, 1547019653252
153, -266.38, -389.43, -97.77, -243.35, 0.000, 0.000, 0.000, 23:40:53.267, 1547019653267
154, -270.48, -392.02, -116.12, -266.10, 0.000, 0.000, 0.000, 23:40:53.267, 1547019653267
155, -271.54, -385.20, -113.45, -252.41, 0.000, 0.000, 0.000, 23:40:53.268, 1547019653268
156, -273.24, -379.39, -103.89, -240.80, 0.000, 0.000, 0.000, 23:40:53.268, 1547019653268
157, -284.06, -393.05, -102.23, -257.21, 0.000, 0.000, 0.000, 23:40:53.282, 1547019653282
158, -273.62, -387.14, -133.83, -272.95, 0.000, 0.000, 0.000, 23:40:53.282, 1547019653282
159, -268.59, -381.40, -132.47, -257.66, 0.000, 0.000, 0.000, 23:40:53.297, 1547019653297
160, -265.32, -386.36, -128.89, -259.01, 0.000, 0.000, 0.000, 23:40:53.297, 1547019653297
161, -274.92, -388.09, -129.21, -271.52, 0.000, 0.000, 0.000, 23:40:53.298, 1547019653298
162, -257.43, -372.09, -105.71, -258.59, 0.000, 0.000, 0.000, 23:40:53.298, 1547019653298
163, -243.00, -351.06, -96.24, -250.87, 0.000, 0.000, 0.000, 23:40:53.312, 1547019653312
164, -253.59, -353.05, -141.06, -279.16, 0.000, 0.000, 0.000, 23:40:53.312, 1547019653312
165, -245.15, -338.63, -114.99, -263.51, 0.000, 0.000, 0.000, 23:40:53.327, 1547019653327
166, -239.47, -324.67, -101.17, -252.60, 0.000, 0.000, 0.000, 23:40:53.327, 1547019653327
167, -245.19, -331.28, -112.44, -254.83, 0.000, 0.000, 0.000, 23:40:53.328, 1547019653328
168, -232.52, -309.95, -107.80, -244.90, 0.000, 0.000, 0.000, 23:40:53.328, 1547019653328
169, -228.55, -303.82, -93.13, -254.49, 0.000, 0.000, 0.000, 23:40:53.342, 1547019653342
170, -206.80, -272.57, -110.69, -258.86, 0.000, 0.000, 0.000, 23:40:53.342, 1547019653342
171, -211.50, -272.59, -116.07, -261.01, 0.000, 0.000, 0.000, 23:40:53.357, 1547019653357
172, -207.40, -288.20, -117.45, -255.18, 0.000, 0.000, 0.000, 23:40:53.357, 1547019653357
173, -194.57, -245.20, -102.05, -249.36, 0.000, 0.000, 0.000, 23:40:53.358, 1547019653358
174, -188.64, -252.60, -103.32, -248.62, 0.000, 0.000, 0.000, 23:40:53.358, 1547019653358
175, -198.86, -238.13, -100.11, -247.66, 0.000, 0.000, 0.000, 23:40:53.372, 1547019653372
176, -217.27, -269.91, -107.22, -249.82, 0.000, 0.000, 0.000, 23:40:53.372, 1547019653372
177, -217.47, -246.04, -99.46, -245.60, 0.000, 0.000, 0.000, 23:40:53.387, 1547019653387
178, -177.73, -216.01, -104.83, -240.19, 0.000, 0.000, 0.000, 23:40:53.387, 1547019653387
179, -172.15, -203.48, -110.07, -263.80, 0.000, 0.000, 0.000, 23:40:53.388, 1547019653388
180, -127.78, -153.47, -112.76, -256.86, 0.000, 0.000, 0.000, 23:40:53.388, 1547019653388
181, -216.80, -227.74, -99.83, -249.90, 0.000, 0.000, 0.000, 23:40:53.402, 1547019653402
182, -153.32, -229.52, -96.99, -258.71, 0.000, 0.000, 0.000, 23:40:53.402, 1547019653402
183, -145.32, -163.74, -94.74, -239.31, 0.000, 0.000, 0.000, 23:40:53.417, 1547019653417
184, -119.93, -141.72, -96.63, -234.86, 0.000, 0.000, 0.000, 23:40:53.417, 1547019653417
185, -63.96, -94.27, -90.85, -247.00, 0.000, 0.000, 0.000, 23:40:53.418, 1547019653418
186, -19.04, -51.95, -99.60, -257.27, 0.000, 0.000, 0.000, 23:40:53.418, 1547019653418
187, 52.59, 8.14, -80.94, -245.15, 0.000, 0.000, 0.000, 23:40:53.432, 1547019653432
188, -24.75, 6.94, -73.40, -239.37, 0.000, 0.000, 0.000, 23:40:53.432, 1547019653432
189, 40.41, 28.33, -16.85, -194.07, 0.000, 0.000, 0.000, 23:40:53.447, 1547019653447
190, -0.14, -1.62, -67.86, -217.21, 0.000, 0.000, 0.000, 23:40:53.447, 1547019653447
191, -31.57, 28.87, -100.56, -253.14, 0.000, 0.000, 0.000, 23:40:53.448, 1547019653448
192, -9.12, 84.51, -128.05, -263.83, 0.000, 0.000, 0.000, 23:40:53.448, 1547019653448
193, -2.14, 131.98, -135.67, -278.37, 0.000, 0.000, 0.000, 23:40:53.462, 1547019653462
194, -1.21, 157.09, -100.56, -271.87, 0.000, 0.000, 0.000, 23:40:53.462, 1547019653462
195, -3.86, 134.17, -86.89, -246.77, 0.000, 0.000, 0.000, 23:40:53.477, 1547019653477
196, -42.48, 145.17, -97.07, -240.02, 0.000, 0.000, 0.000, 23:40:53.477, 1547019653477
197, -46.88, 150.38, -71.99, -237.21, 0.000, 0.000, 0.000, 23:40:53.478, 1547019653478
198, -53.99, 180.39, -65.79, -233.71, 0.000, 0.000, 0.000, 23:40:53.478, 1547019653478
199, -44.19, 186.07, -77.80, -232.67, 0.000, 0.000, 0.000, 23:40:53.492, 1547019653492
200, -62.60, 171.45, -81.18, -236.32, 0.000, 0.000, 0.000, 23:40:53.492, 1547019653492
0, -87.33, 142.25, -99.18, -257.05, 0.000, 0.000, 0.000, 23:40:53.493, 1547019653493
1, -91.89, 134.68, -72.29, -240.48, 0.000, 0.000, 0.000, 23:40:53.507, 1547019653507
2, -97.24, 111.54, -65.28, -234.20, 0.000, 0.000, 0.000, 23:40:53.507, 1547019653507
3, -115.83, 78.59, -112.94, -244.23, 0.000, 0.000, 0.000, 23:40:53.522, 1547019653522
4, -127.86, 30.81, -105.01, -264.69, 0.000, 0.000, 0.000, 23:40:53.522, 1547019653522
5, -130.77, -5.64, -86.78, -265.12, 0.000, 0.000, 0.000, 23:40:53.523, 1547019653523
6, -144.75, -50.14, -93.80, -252.38, 0.000, 0.000, 0.000, 23:40:53.523, 1547019653523
7, -167.59, -98.18, -107.77, -256.35, 0.000, 0.000, 0.000, 23:40:53.537, 1547019653537
8, -179.94, -156.62, -98.81, -260.27, 0.000, 0.000, 0.000, 23:40:53.537, 1547019653537
9, -181.16, -189.34, -98.78, -259.04, 0.000, 0.000, 0.000, 23:40:53.552, 1547019653552
10, -188.81, -219.74, -115.40, -258.00, 0.000, 0.000, 0.000, 23:40:53.552, 1547019653552
11, -188.09, -240.55, -109.79, -248.92, 0.000, 0.000, 0.000, 23:40:53.553, 1547019653553
12, -203.17, -259.39, -97.39, -237.21, 0.000, 0.000, 0.000, 23:40:53.553, 1547019653553
13, -202.71, -280.63, -104.88, -260.95, 0.000, 0.000, 0.000, 23:40:53.568, 1547019653568
14, -209.06, -308.75, -99.55, -253.33, 0.000, 0.000, 0.000, 23:40:53.568, 1547019653568
15, -209.79, -312.23, -104.73, -248.01, 0.000, 0.000, 0.000, 23:40:53.582, 1547019653582
16, -219.04, -335.67, -123.43, -260.35, 0.000, 0.000, 0.000, 23:40:53.582, 1547019653582
17, -202.52, -316.87, -106.88, -244.86, 0.000, 0.000, 0.000, 23:40:53.583, 1547019653583
18, -202.11, -318.42, -103.79, -249.82, 0.000, 0.000, 0.000, 23:40:53.583, 1547019653583
19, -205.61, -312.66, -101.27, -254.26, 0.000, 0.000, 0.000, 23:40:53.597, 1547019653597
20, -209.90, -318.20, -92.52, -239.62, 0.000, 0.000, 0.000, 23:40:53.597, 1547019653597
21, -194.24, -298.54, -100.84, -248.62, 0.000, 0.000, 0.000, 23:40:53.612, 1547019653612
22, -204.03, -303.05, -123.80, -274.65, 0.000, 0.000, 0.000, 23:40:53.612, 1547019653612
23, -200.67, -290.50, -125.25, -269.47, 0.000, 0.000, 0.000, 23:40:53.613, 1547019653613
24, -203.91, -288.03, -138.52, -275.11, 0.000, 0.000, 0.000, 23:40:53.613, 1547019653613
25, -188.61, -270.09, -113.58, -265.56, 0.000, 0.000, 0.000, 23:40:53.627, 1547019653627
26, -188.49, -257.77, -116.98, -266.65, 0.000, 0.000, 0.000, 23:40:53.627, 1547019653627
27, -196.31, -259.93, -126.27, -271.16, 0.000, 0.000, 0.000, 23:40:53.642, 1547019653642
28, -187.06, -239.89, -106.29, -257.48, 0.000, 0.000, 0.000, 23:40:53.642, 1547019653642
29, -166.07, -241.71, -75.00, -228.17, 0.000, 0.000, 0.000, 23:40:53.643, 1547019653643
30, -171.04, -228.15, -90.24, -235.19, 0.000, 0.000, 0.000, 23:40:53.643, 1547019653643
31, -180.85, -234.44, -117.87, -261.04, 0.000, 0.000, 0.000, 23:40:53.657, 1547019653657
32, -183.49, -229.29, -109.84, -257.14, 0.000, 0.000, 0.000, 23:40:53.657, 1547019653657
33, -162.06, -198.14, -95.21, -248.22, 0.000, 0.000, 0.000, 23:40:53.672, 1547019653672
34, -169.81, -231.93, -95.90, -240.97, 0.000, 0.000, 0.000, 23:40:53.672, 1547019653672
35, -152.59, -194.59, -92.99, -238.59, 0.000, 0.000, 0.000, 23:40:53.673, 1547019653673
36, -188.15, -213.97, -97.25, -247.45, 0.000, 0.000, 0.000, 23:40:53.673, 1547019653673
37, -148.10, -177.28, -112.37, -254.56, 0.000, 0.000, 0.000, 23:40:53.687, 1547019653687
38, -148.10, -149.14, -108.02, -254.85, 0.000, 0.000, 0.000, 23:40:53.687, 1547019653687
39, -162.53, -184.84, -115.72, -257.86, 0.000, 0.000, 0.000, 23:40:53.702, 1547019653702
40, -128.78, -158.15, -99.04, -246.99, 0.000, 0.000, 0.000, 23:40:53.702, 1547019653702
41, -114.95, -140.55, -79.67, -226.66, 0.000, 0.000, 0.000, 23:40:53.703, 1547019653703
42, -91.71, -98.79, -96.32, -265.85, 0.000, 0.000, 0.000, 23:40:53.703, 1547019653703
43, -17.88, -53.52, -66.36, -240.35, 0.000, 0.000, 0.000, 23:40:53.717, 1547019653717
44, -8.33, -70.19, -104.21, -253.47, 0.000, 0.000, 0.000, 23:40:53.717, 1547019653717
45, 59.92, 17.30, -79.88, -221.79, 0.000, 0.000, 0.000, 23:40:53.732, 1547019653732
46, 71.67, 39.02, -84.01, -226.75, 0.000, 0.000, 0.000, 23:40:53.732, 1547019653732
47, 104.68, 71.28, -123.53, -270.52, 0.000, 0.000, 0.000, 23:40:53.733, 1547019653733
48, 133.58, 113.09, -102.45, -246.71, 0.000, 0.000, 0.000, 23:40:53.733, 1547019653733
49, 115.98, 72.08, -55.22, -217.02, 0.000, 0.000, 0.000, 23:40:53.747, 1547019653747
50, 123.99, 113.66, -71.03, -228.67, 0.000, 0.000, 0.000, 23:40:53.747, 1547019653747
51, 71.33, 90.91, -65.95, -214.23, 0.000, 0.000, 0.000, 23:40:53.762, 1547019653762
52, 86.28, 90.43, -62.50, -214.57, 0.000, 0.000, 0.000, 23:40:53.762, 1547019653762
53, 115.15, 123.65, -65.71, -236.87, 0.000, 0.000, 0.000, 23:40:53.763, 1547019653763
54, 94.76, 131.60, -70.79, -246.66, 0.000, 0.000, 0.000, 23:40:53.763, 1547019653763
55, 69.56, 129.06, -113.55, -242.74, 0.000, 0.000, 0.000, 23:40:53.777, 1547019653777
56, 32.48, 105.74, -97.27, -245.47, 0.000, 0.000, 0.000, 23:40:53.777, 1547019653777
57, 28.15, 111.81, -51.87, -221.10, 0.000, 0.000, 0.000, 23:40:53.792, 1547019653792
58, -11.45, 76.70, -62.21, -211.12, 0.000, 0.000, 0.000, 23:40:53.792, 1547019653792
59, -51.63, 39.80, -108.84, -258.35, 0.000, 0.000, 0.000, 23:40:53.793, 1547019653793
60, -91.94, -15.99, -99.89, -252.55, 0.000, 0.000, 0.000, 23:40:53.793, 1547019653793
61, -106.82, -46.26, -92.45, -256.11, 0.000, 0.000, 0.000, 23:40:53.807, 1547019653807
62, -145.42, -99.59, -106.54, -262.23, 0.000, 0.000, 0.000, 23:40:53.807, 1547019653807
63, -175.69, -145.26, -115.39, -273.23, 0.000, 0.000, 0.000, 23:40:53.822, 1547019653822
64, -198.59, -184.15, -98.87, -258.36, 0.000, 0.000, 0.000, 23:40:53.822, 1547019653822
65, -193.65, -191.26, -93.93, -244.50, 0.000, 0.000, 0.000, 23:40:53.823, 1547019653823
66, -217.48, -221.74, -107.46, -259.37, 0.000, 0.000, 0.000, 23:40:53.823, 1547019653823
67, -234.68, -241.29, -105.11, -249.89, 0.000, 0.000, 0.000, 23:40:53.837, 1547019653837
68, -252.74, -271.42, -107.98, -259.09, 0.000, 0.000, 0.000, 23:40:53.837, 1547019653837
69, -257.30, -284.12, -101.71, -256.64, 0.000, 0.000, 0.000, 23:40:53.852, 1547019653852
70, -257.99, -286.61, -113.38, -274.32, 0.000, 0.000, 0.000, 23:40:53.852, 1547019653852
71, -253.34, -284.53, -122.61, -264.79, 0.000, 0.000, 0.000, 23:40:53.853, 1547019653853
72, -247.46, -280.20, -106.96, -252.79, 0.000, 0.000, 0.000, 23:40:53.853, 1547019653853
73, -239.74, -272.05, -85.61, -249.36, 0.000, 0.000, 0.000, 23:40:53.867, 1547019653867
74, -245.90, -270.29, -113.66, -264.54, 0.000, 0.000, 0.000, 23:40:53.867, 1547019653867
75, -248.29, -271.61, -121.96, -259.46, 0.000, 0.000, 0.000, 23:40:53.882, 1547019653882
76, -252.84, -276.21, -129.41, -265.15, 0.000, 0.000, 0.000, 23:40:53.882, 1547019653882
77, -245.83, -272.22, -124.60, -276.23, 0.000, 0.000, 0.000, 23:40:53.883, 1547019653883
78, -227.52, -251.57, -112.08, -260.35, 0.000, 0.000, 0.000, 23:40:53.883, 1547019653883
79, -226.41, -241.26, -116.25, -261.42, 0.000, 0.000, 0.000, 23:40:53.897, 1547019653897
80, -223.45, -244.67, -92.37, -245.61, 0.000, 0.000, 0.000, 23:40:53.897, 1547019653897
81, -212.78, -229.84, -107.26, -263.29, 0.000, 0.000, 0.000, 23:40:53.912, 1547019653912
82, -204.85, -221.01, -100.33, -251.33, 0.000, 0.000, 0.000, 23:40:53.912, 1547019653912
83, -206.93, -218.45, -110.71, -246.04, 0.000, 0.000, 0.000, 23:40:53.913, 1547019653913
84, -209.80, -226.22, -112.48, -260.54, 0.000, 0.000, 0.000, 23:40:53.913, 1547019653913
85, -198.26, -209.63, -104.53, -249.76, 0.000, 0.000, 0.000, 23:40:53.927, 1547019653927
86, -203.18, -212.50, -117.72, -270.23, 0.000, 0.000, 0.000, 23:40:53.927, 1547019653927
87, -199.82, -206.12, -115.54, -262.02, 0.000, 0.000, 0.000, 23:40:53.942, 1547019653942
88, -194.51, -206.16, -105.88, -251.92, 0.000, 0.000, 0.000, 23:40:53.942, 1547019653942
89, -175.84, -188.69, -85.50, -232.06, 0.000, 0.000, 0.000, 23:40:53.943, 1547019653943
90, -184.49, -193.63, -111.93, -257.23, 0.000, 0.000, 0.000, 23:40:53.943, 1547019653943
91, -184.36, -189.95, -105.64, -264.92, 0.000, 0.000, 0.000, 23:40:53.957, 1547019653957
92, -186.04, -193.20, -98.17, -253.26, 0.000, 0.000, 0.000, 23:40:53.957, 1547019653957
93, -173.42, -183.37, -94.81, -240.08, 0.000, 0.000, 0.000, 23:40:53.972, 1547019653972
94, -168.24, -176.95, -93.64, -247.99, 0.000, 0.000, 0.000, 23:40:53.972, 1547019653972
95, -178.13, -187.47, -117.47, -255.85, 0.000, 0.000, 0.000, 23:40:53.973, 1547019653973
96, -178.75, -190.47, -118.67, -271.18, 0.000, 0.000, 0.000, 23:40:53.973, 1547019653973
97, -165.33, -177.02, -99.49, -257.65, 0.000, 0.000, 0.000, 23:40:53.994, 1547019653994
98, -157.99, -167.32, -91.84, -247.96, 0.000, 0.000, 0.000, 23:40:53.994, 1547019653994
99, -155.42, -157.89, -99.61, -248.12, 0.000, 0.000, 0.000, 23:40:54.002, 1547019654002
100, -159.80, -163.48, -102.20, -244.96, 0.000, 0.000, 0.000, 23:40:54.002, 1547019654002
101, -152.41, -153.00, -99.03, -245.39, 0.000, 0.000, 0.000, 23:40:54.003, 1547019654003
102, -152.58, -154.91, -104.66, -238.80, 0.000, 0.000, 0.000, 23:40:54.003, 1547019654003
103, -166.38, -163.58, -112.88, -258.47, 0.000, 0.000, 0.000, 23:40:54.018, 1547019654018
104, -165.73, -171.58, -94.26, -256.56, 0.000, 0.000, 0.000, 23:40:54.018, 1547019654018
105, -152.51, -155.95, -97.10, -240.08, 0.000, 0.000, 0.000, 23:40:54.032, 1547019654032
106, -152.13, -153.73, -106.38, -264.04, 0.000, 0.000, 0.000, 23:40:54.032, 1547019654032
107, -148.81, -151.35, -110.93, -267.60, 0.000, 0.000, 0.000, 23:40:54.033, 1547019654033
108, -147.33, -154.21, -85.41, -249.60, 0.000, 0.000, 0.000, 23:40:54.033, 1547019654033
109, -142.44, -148.17, -85.06, -237.72, 0.000, 0.000, 0.000, 23:40:54.048, 1547019654048
110, -141.25, -148.81, -98.31, -243.60, 0.000, 0.000, 0.000, 23:40:54.048, 1547019654048
111, -147.48, -147.41, -125.41, -266.78, 0.000, 0.000, 0.000, 23:40:54.062, 1547019654062
112, -149.55, -149.50, -91.29, -233.01, 0.000, 0.000, 0.000, 23:40:54.062, 1547019654062
113, -134.87, -133.36, -95.28, -251.66, 0.000, 0.000, 0.000, 23:40:54.063, 1547019654063
114, -135.92, -135.77, -88.74, -250.40, 0.000, 0.000, 0.000, 23:40:54.063, 1547019654063
115, -132.50, -130.47, -98.30, -248.28, 0.000, 0.000, 0.000, 23:40:54.077, 1547019654077
116, -141.43, -141.96, -106.64, -254.34, 0.000, 0.000, 0.000, 23:40:54.077, 1547019654077
117, -132.92, -135.18, -91.07, -240.85, 0.000, 0.000, 0.000, 23:40:54.092, 1547019654092
118, -127.04, -129.77, -97.59, -248.14, 0.000, 0.000, 0.000, 23:40:54.092, 1547019654092
119, -142.94, -143.21, -126.38, -266.53, 0.000, 0.000, 0.000, 23:40:54.093, 1547019654093
120, -142.48, -146.51, -104.97, -259.70, 0.000, 0.000, 0.000, 23:40:54.093, 1547019654093
121, -128.76, -133.71, -92.24, -241.50, 0.000, 0.000, 0.000, 23:40:54.107, 1547019654107
122, -126.72, -126.53, -87.76, -243.84, 0.000, 0.000, 0.000, 23:40:54.107, 1547019654107
123, -136.13, -135.49, -103.36, -255.49, 0.000, 0.000, 0.000, 23:40:54.122, 1547019654122
124, -145.22, -148.67, -122.39, -265.02, 0.000, 0.000, 0.000, 23:40:54.122, 1547019654122
125, -142.21, -145.86, -118.19, -260.55, 0.000, 0.000, 0.000, 23:40:54.123, 1547019654123
126, -138.60, -141.47, -109.06, -268.31, 0.000, 0.000, 0.000, 23:40:54.123, 1547019654123
127, -139.85, -134.79, -97.59, -252.38, 0.000, 0.000, 0.000, 23:40:54.137, 1547019654137
128, -131.92, -133.64, -86.22, -232.92, 0.000, 0.000, 0.000, 23:40:54.137, 1547019654137
129, -131.07, -131.42, -87.17, -239.34, 0.000, 0.000, 0.000, 23:40:54.152, 1547019654152
130, -136.71, -137.10, -88.76, -239.15, 0.000, 0.000, 0.000, 23:40:54.152, 1547019654152
131, -133.97, -126.88, -101.91, -244.93, 0.000, 0.000, 0.000, 23:40:54.153, 1547019654153
132, -146.64, -145.43, -112.09, -265.12, 0.000, 0.000, 0.000, 23:40:54.153, 1547019654153
133, -130.49, -130.48, -96.05, -246.17, 0.000, 0.000, 0.000, 23:40:54.167, 1547019654167
134, -128.25, -129.76, -94.94, -248.73, 0.000, 0.000, 0.000, 23:40:54.167, 1547019654167
135, -132.44, -119.18, -99.95, -241.68, 0.000, 0.000, 0.000, 23:40:54.182, 1547019654182
136, -133.32, -138.32, -90.85, -235.04, 0.000, 0.000, 0.000, 23:40:54.182, 1547019654182
137, -105.57, -125.80, -77.56, -235.77, 0.000, 0.000, 0.000, 23:40:54.183, 1547019654183
138, -109.32, -115.41, -83.37, -243.94, 0.000, 0.000, 0.000, 23:40:54.183, 1547019654183
139, -134.21, -129.38, -91.37, -241.87, 0.000, 0.000, 0.000, 23:40:54.197, 1547019654197
140, -96.36, -80.47, -93.42, -248.13, 0.000, 0.000, 0.000, 23:40:54.197, 1547019654197
141, -89.52, -105.65, -92.54, -243.16, 0.000, 0.000, 0.000, 23:40:54.212, 1547019654212
142, -46.20, -39.57, -88.98, -243.52, 0.000, 0.000, 0.000, 23:40:54.212, 1547019654212
143, -2.16, -9.36, -88.01, -242.17, 0.000, 0.000, 0.000, 23:40:54.213, 1547019654213
144, -8.51, 3.89, -88.81, -239.66, 0.000, 0.000, 0.000, 23:40:54.213, 1547019654213
145, 99.79, 77.08, -71.42, -226.45, 0.000, 0.000, 0.000, 23:40:54.227, 1547019654227
146, 75.60, 106.09, -64.01, -224.59, 0.000, 0.000, 0.000, 23:40:54.227, 1547019654227
147, 92.18, 86.74, -28.23, -205.29, 0.000, 0.000, 0.000, 23:40:54.242, 1547019654242
148, 112.54, 94.40, -86.86, -235.93, 0.000, 0.000, 0.000, 23:40:54.242, 1547019654242
149, 139.76, 140.56, -91.76, -243.59, 0.000, 0.000, 0.000, 23:40:54.243, 1547019654243
150, 177.69, 136.67, -77.46, -233.08, 0.000, 0.000, 0.000, 23:40:54.243, 1547019654243
