%OpenBCI Raw EEG Data
%
%Sample Rate = 200.0 Hz
%First Column = SampleIndex
%Last Column = Timestamp 
%Other Columns = EEG data in microvolts followed by Accel Data (in G) interleaved with Aux Data
0, -453.39, -14.73, 277.01, -3455.08, 0.000, 0.000, 0.000, 17:51:16.643
1, -480.39, -44.45, 253.71, -3442.12, 0.000, 0.000, 0.000, 17:51:16.658
2, -520.76, -60.63, 279.28, -3349.35, 0.000, 0.000, 0.000, 17:51:16.658
3, -489.24, -37.86, 291.12, -3342.52, 0.000, 0.000, 0.000, 17:51:16.673
4, -448.86, -4.63, 281.74, -3474.91, 0.000, 0.000, 0.000, 17:51:16.673
5, -473.95, -29.87, 269.36, -3438.22, 0.000, 0.000, 0.000, 17:51:16.673
6, -520.66, -61.17, 276.98, -3292.10, 0.000, 0.000, 0.000, 17:51:16.674
7, -492.79, -46.75, 288.71, -3346.97, 0.000, 0.000, 0.000, 17:51:16.688
8, -454.67, -24.01, 278.06, -3521.72, 0.000, 0.000, 0.000, 17:51:16.688
9, -482.73, -43.32, 253.25, -3416.92, 0.000, 0.000, 0.000, 17:51:16.703
10, -508.23, -54.19, 273.67, -3277.86, 0.000, 0.000, 0.000, 17:51:16.703
11, -494.32, -40.92, 292.96, -3380.25, 0.000, 0.000, 0.000, 17:51:16.703
12, -445.94, -12.29, 287.98, -3448.91, 0.000, 0.000, 0.000, 17:51:16.704
13, -461.56, -16.54, 278.44, -3385.04, 0.000, 0.000, 0.000, 17:51:16.718
14, -516.53, -50.67, 283.63, -3372.15, 0.000, 0.000, 0.000, 17:51:16.718
15, -487.69, -34.43, 296.06, -3368.53, 0.000, 0.000, 0.000, 17:51:16.733
16, -436.35, -14.21, 285.92, -3478.62, 0.000, 0.000, 0.000, 17:51:16.733
17, -474.72, -39.89, 260.01, -3422.08, 0.000, 0.000, 0.000, 17:51:16.733
18, -506.81, -50.37, 283.38, -3256.05, 0.000, 0.000, 0.000, 17:51:16.733
19, -484.51, -30.72, 294.81, -3373.77, 0.000, 0.000, 0.000, 17:51:16.748
20, -450.66, -4.91, 282.28, -3529.67, 0.000, 0.000, 0.000, 17:51:16.748
21, -470.65, -27.75, 262.76, -3387.04, 0.000, 0.000, 0.000, 17:51:16.763
22, -507.70, -52.68, 278.19, -3264.56, 0.000, 0.000, 0.000, 17:51:16.763
23, -490.57, -35.35, 298.85, -3400.48, 0.000, 0.000, 0.000, 17:51:16.763
24, -439.75, -9.21, 288.73, -3461.76, 0.000, 0.000, 0.000, 17:51:16.763
25, -467.68, -31.95, 275.40, -3399.80, 0.000, 0.000, 0.000, 17:51:16.778
26, -521.74, -58.78, 283.00, -3342.31, 0.000, 0.000, 0.000, 17:51:16.778
27, -496.85, -37.60, 293.57, -3329.41, 0.000, 0.000, 0.000, 17:51:16.793
28, -453.92, -15.84, 292.64, -3425.27, 0.000, 0.000, 0.000, 17:51:16.793
29, -493.61, -51.22, 280.20, -3369.29, 0.000, 0.000, 0.000, 17:51:16.794
30, -494.21, -50.69, 286.08, -3264.47, 0.000, 0.000, 0.000, 17:51:16.794
31, -465.94, -16.56, 291.62, -3344.76, 0.000, 0.000, 0.000, 17:51:16.808
32, -437.59, -7.31, 285.55, -3516.23, 0.000, 0.000, 0.000, 17:51:16.808
33, -458.12, -23.57, 271.70, -3384.77, 0.000, 0.000, 0.000, 17:51:16.823
34, -504.07, -52.58, 270.34, -3293.91, 0.000, 0.000, 0.000, 17:51:16.823
35, -475.95, -24.76, 302.63, -3366.21, 0.000, 0.000, 0.000, 17:51:16.823
36, -425.32, 0.50, 292.28, -3420.71, 0.000, 0.000, 0.000, 17:51:16.823
37, -458.66, -24.34, 275.10, -3384.85, 0.000, 0.000, 0.000, 17:51:16.838
38, -513.20, -54.26, 282.85, -3330.68, 0.000, 0.000, 0.000, 17:51:16.838
39, -479.33, -24.90, 305.12, -3313.75, 0.000, 0.000, 0.000, 17:51:16.853
40, -437.36, -3.85, 288.83, -3458.76, 0.000, 0.000, 0.000, 17:51:16.853
41, -464.32, -28.42, 273.21, -3425.96, 0.000, 0.000, 0.000, 17:51:16.853
42, -508.38, -51.44, 276.27, -3276.87, 0.000, 0.000, 0.000, 17:51:16.853
43, -485.88, -31.95, 292.27, -3357.50, 0.000, 0.000, 0.000, 17:51:16.868
44, -444.58, -7.49, 292.61, -3510.77, 0.000, 0.000, 0.000, 17:51:16.868
45, -455.69, -26.49, 265.14, -3392.44, 0.000, 0.000, 0.000, 17:51:16.883
46, -505.76, -54.71, 278.18, -3300.54, 0.000, 0.000, 0.000, 17:51:16.883
47, -487.03, -36.71, 298.74, -3393.68, 0.000, 0.000, 0.000, 17:51:16.883
48, -434.44, -9.07, 283.06, -3428.71, 0.000, 0.000, 0.000, 17:51:16.884
49, -460.05, -28.20, 259.66, -3403.54, 0.000, 0.000, 0.000, 17:51:16.898
50, -518.90, -54.22, 272.10, -3357.81, 0.000, 0.000, 0.000, 17:51:16.898
51, -491.12, -39.59, 287.40, -3342.81, 0.000, 0.000, 0.000, 17:51:16.913
52, -439.33, -6.85, 282.83, -3466.44, 0.000, 0.000, 0.000, 17:51:16.913
53, -471.20, -23.57, 281.56, -3446.51, 0.000, 0.000, 0.000, 17:51:16.913
54, -502.34, -47.35, 290.69, -3239.23, 0.000, 0.000, 0.000, 17:51:16.913
55, -496.93, -44.41, 289.95, -3347.98, 0.000, 0.000, 0.000, 17:51:16.928
56, -461.95, -21.29, 284.85, -3559.02, 0.000, 0.000, 0.000, 17:51:16.928
57, -476.46, -38.40, 263.46, -3404.73, 0.000, 0.000, 0.000, 17:51:16.958
58, -506.60, -43.65, 289.11, -3300.02, 0.000, 0.000, 0.000, 17:51:16.958
59, -491.92, -31.74, 307.26, -3401.09, 0.000, 0.000, 0.000, 17:51:16.958
60, -442.78, -4.07, 289.09, -3441.76, 0.000, 0.000, 0.000, 17:51:16.958
61, -468.84, -28.68, 269.96, -3401.56, 0.000, 0.000, 0.000, 17:51:16.959
62, -520.39, -59.81, 279.97, -3302.45, 0.000, 0.000, 0.000, 17:51:16.959
63, -503.38, -39.07, 295.67, -3354.46, 0.000, 0.000, 0.000, 17:51:16.960
64, -455.40, -13.75, 286.92, -3479.57, 0.000, 0.000, 0.000, 17:51:16.960
65, -493.76, -39.23, 282.63, -3554.99, 0.000, 0.000, 0.000, 17:51:16.974
66, -519.58, -57.89, 271.71, -3309.56, 0.000, 0.000, 0.000, 17:51:16.974
67, -489.96, -27.35, 299.05, -3354.65, 0.000, 0.000, 0.000, 17:51:16.988
68, -449.14, -9.99, 296.56, -3478.01, 0.000, 0.000, 0.000, 17:51:16.988
69, -463.05, -28.40, 266.78, -3381.23, 0.000, 0.000, 0.000, 17:51:17.003
70, -506.96, -52.35, 273.99, -3265.50, 0.000, 0.000, 0.000, 17:51:17.003
71, -484.42, -31.51, 295.65, -3359.96, 0.000, 0.000, 0.000, 17:51:17.003
72, -444.26, -10.05, 276.71, -3467.92, 0.000, 0.000, 0.000, 17:51:17.003
73, -468.70, -36.46, 273.35, -3394.46, 0.000, 0.000, 0.000, 17:51:17.018
74, -541.76, -79.83, 295.93, -3327.30, 0.000, 0.000, 0.000, 17:51:17.018
75, -494.62, -20.36, 296.93, -3352.26, 0.000, 0.000, 0.000, 17:51:17.033
76, -426.37, 17.61, 284.45, -3460.91, 0.000, 0.000, 0.000, 17:51:17.036
77, -461.36, -16.03, 258.27, -3486.33, 0.000, 0.000, 0.000, 17:51:17.036
78, -514.45, -49.19, 252.94, -3335.09, 0.000, 0.000, 0.000, 17:51:17.036
79, -482.65, -16.02, 287.14, -3403.36, 0.000, 0.000, 0.000, 17:51:17.048
80, -433.93, 13.01, 289.55, -3543.22, 0.000, 0.000, 0.000, 17:51:17.048
81, -454.79, -13.47, 262.55, -3452.43, 0.000, 0.000, 0.000, 17:51:17.063
82, -514.51, -52.39, 278.98, -3282.53, 0.000, 0.000, 0.000, 17:51:17.063
83, -498.32, -37.11, 288.74, -3420.61, 0.000, 0.000, 0.000, 17:51:17.063
84, -433.34, 4.43, 289.51, -3456.00, 0.000, 0.000, 0.000, 17:51:17.064
85, -465.82, -23.13, 263.21, -3419.42, 0.000, 0.000, 0.000, 17:51:17.078
86, -516.76, -54.33, 280.20, -3363.28, 0.000, 0.000, 0.000, 17:51:17.078
87, -496.66, -43.73, 282.07, -3348.03, 0.000, 0.000, 0.000, 17:51:17.093
88, -450.18, -11.43, 270.87, -3514.04, 0.000, 0.000, 0.000, 17:51:17.093
89, -472.05, -25.71, 266.65, -3438.08, 0.000, 0.000, 0.000, 17:51:17.093
90, -507.96, -44.00, 272.57, -3269.32, 0.000, 0.000, 0.000, 17:51:17.093
91, -494.85, -35.35, 289.09, -3396.60, 0.000, 0.000, 0.000, 17:51:17.108
92, -450.52, -5.27, 287.13, -3510.40, 0.000, 0.000, 0.000, 17:51:17.108
93, -465.96, -23.42, 265.12, -3402.18, 0.000, 0.000, 0.000, 17:51:17.123
94, -512.74, -58.16, 270.31, -3313.14, 0.000, 0.000, 0.000, 17:51:17.123
95, -495.25, -37.82, 300.58, -3366.44, 0.000, 0.000, 0.000, 17:51:17.123
96, -436.17, -6.03, 283.53, -3405.83, 0.000, 0.000, 0.000, 17:51:17.124
97, -458.19, -31.93, 267.26, -3387.79, 0.000, 0.000, 0.000, 17:51:17.138
98, -519.69, -64.92, 276.94, -3318.61, 0.000, 0.000, 0.000, 17:51:17.138
99, -481.30, -31.65, 301.70, -3299.96, 0.000, 0.000, 0.000, 17:51:17.153
100, -447.85, -20.41, 278.16, -3470.39, 0.000, 0.000, 0.000, 17:51:17.153
101, -473.28, -32.05, 262.59, -3427.29, 0.000, 0.000, 0.000, 17:51:17.153
102, -513.81, -55.08, 271.96, -3271.58, 0.000, 0.000, 0.000, 17:51:17.153
103, -494.53, -38.05, 284.79, -3363.42, 0.000, 0.000, 0.000, 17:51:17.168
104, -454.01, -11.76, 283.19, -3518.03, 0.000, 0.000, 0.000, 17:51:17.168
105, -473.34, -31.47, 263.61, -3405.46, 0.000, 0.000, 0.000, 17:51:17.183
106, -509.05, -44.39, 275.53, -3265.53, 0.000, 0.000, 0.000, 17:51:17.183
107, -493.90, -27.70, 299.63, -3399.89, 0.000, 0.000, 0.000, 17:51:17.183
108, -442.57, -9.68, 281.96, -3440.86, 0.000, 0.000, 0.000, 17:51:17.184
109, -463.64, -26.04, 260.88, -3408.71, 0.000, 0.000, 0.000, 17:51:17.198
110, -510.92, -53.85, 273.74, -3354.66, 0.000, 0.000, 0.000, 17:51:17.198
111, -484.56, -38.46, 294.21, -3311.19, 0.000, 0.000, 0.000, 17:51:17.213
112, -436.35, -12.07, 275.81, -3469.94, 0.000, 0.000, 0.000, 17:51:17.213
113, -460.01, -23.65, 271.67, -3448.17, 0.000, 0.000, 0.000, 17:51:17.214
114, -507.32, -50.87, 268.57, -3280.43, 0.000, 0.000, 0.000, 17:51:17.214
115, -492.00, -36.04, 296.44, -3347.94, 0.000, 0.000, 0.000, 17:51:17.228
116, -444.46, -15.44, 287.33, -3538.54, 0.000, 0.000, 0.000, 17:51:17.228
117, -462.61, -27.06, 264.43, -3410.50, 0.000, 0.000, 0.000, 17:51:17.243
118, -507.48, -50.00, 270.26, -3281.49, 0.000, 0.000, 0.000, 17:51:17.243
119, -487.03, -28.71, 297.13, -3365.38, 0.000, 0.000, 0.000, 17:51:17.243
120, -437.25, -5.65, 296.64, -3413.38, 0.000, 0.000, 0.000, 17:51:17.243
121, -456.78, -22.36, 270.65, -3399.41, 0.000, 0.000, 0.000, 17:51:17.273
122, -517.50, -57.11, 285.95, -3346.21, 0.000, 0.000, 0.000, 17:51:17.273
123, -495.28, -38.91, 302.64, -3345.42, 0.000, 0.000, 0.000, 17:51:17.273
124, -443.99, -8.37, 293.62, -3443.95, 0.000, 0.000, 0.000, 17:51:17.273
125, -473.97, -37.11, 271.25, -3420.73, 0.000, 0.000, 0.000, 17:51:17.274
126, -516.90, -57.93, 278.07, -3313.18, 0.000, 0.000, 0.000, 17:51:17.274
127, -494.79, -41.82, 298.04, -3377.09, 0.000, 0.000, 0.000, 17:51:17.288
128, -458.87, -20.36, 291.01, -3567.28, 0.000, 0.000, 0.000, 17:51:17.288
129, -468.25, -33.78, 254.16, -3410.55, 0.000, 0.000, 0.000, 17:51:17.303
130, -525.08, -61.19, 270.81, -3302.65, 0.000, 0.000, 0.000, 17:51:17.303
131, -498.33, -37.32, 291.36, -3363.71, 0.000, 0.000, 0.000, 17:51:17.303
132, -450.98, -10.81, 277.82, -3455.08, 0.000, 0.000, 0.000, 17:51:17.304
133, -461.46, -26.66, 267.77, -3399.73, 0.000, 0.000, 0.000, 17:51:17.318
134, -519.16, -57.12, 282.54, -3346.84, 0.000, 0.000, 0.000, 17:51:17.318
135, -481.27, -22.33, 302.29, -3321.50, 0.000, 0.000, 0.000, 17:51:17.333
136, -435.84, 1.98, 284.79, -3453.34, 0.000, 0.000, 0.000, 17:51:17.333
137, -457.25, -21.86, 270.37, -3415.78, 0.000, 0.000, 0.000, 17:51:17.333
138, -509.79, -52.87, 271.11, -3270.22, 0.000, 0.000, 0.000, 17:51:17.333
139, -488.97, -31.15, 289.67, -3351.78, 0.000, 0.000, 0.000, 17:51:17.348
140, -445.94, -3.71, 295.73, -3518.71, 0.000, 0.000, 0.000, 17:51:17.348
141, -455.85, -19.43, 270.29, -3418.09, 0.000, 0.000, 0.000, 17:51:17.363
142, -502.45, -48.21, 274.90, -3268.93, 0.000, 0.000, 0.000, 17:51:17.363
143, -487.31, -29.17, 303.88, -3364.84, 0.000, 0.000, 0.000, 17:51:17.364
144, -431.00, 5.35, 293.23, -3420.83, 0.000, 0.000, 0.000, 17:51:17.364
145, -460.91, -23.31, 267.17, -3397.05, 0.000, 0.000, 0.000, 17:51:17.378
146, -513.22, -53.60, 280.88, -3352.54, 0.000, 0.000, 0.000, 17:51:17.378
147, -493.96, -37.41, 293.06, -3347.32, 0.000, 0.000, 0.000, 17:51:17.393
148, -445.04, -6.19, 283.82, -3442.11, 0.000, 0.000, 0.000, 17:51:17.393
149, -460.08, -22.83, 272.83, -3403.21, 0.000, 0.000, 0.000, 17:51:17.393
150, -506.81, -47.52, 273.78, -3256.10, 0.000, 0.000, 0.000, 17:51:17.394
151, -486.52, -32.73, 289.42, -3337.29, 0.000, 0.000, 0.000, 17:51:17.408
152, -446.84, -15.62, 291.74, -3520.05, 0.000, 0.000, 0.000, 17:51:17.408
153, -459.98, -23.70, 258.94, -3435.15, 0.000, 0.000, 0.000, 17:51:17.423
154, -519.66, -59.08, 265.13, -3330.77, 0.000, 0.000, 0.000, 17:51:17.423
155, -502.29, -46.31, 283.15, -3395.76, 0.000, 0.000, 0.000, 17:51:17.423
156, -439.30, -6.17, 287.45, -3453.79, 0.000, 0.000, 0.000, 17:51:17.423
157, -458.57, -24.39, 276.00, -3417.81, 0.000, 0.000, 0.000, 17:51:17.438
158, -512.15, -49.04, 282.56, -3346.30, 0.000, 0.000, 0.000, 17:51:17.438
159, -489.82, -35.13, 300.44, -3350.26, 0.000, 0.000, 0.000, 17:51:17.453
160, -450.08, -11.43, 286.95, -3465.26, 0.000, 0.000, 0.000, 17:51:17.453
161, -464.52, -25.97, 271.87, -3433.14, 0.000, 0.000, 0.000, 17:51:17.453
162, -508.78, -49.88, 274.08, -3236.57, 0.000, 0.000, 0.000, 17:51:17.454
163, -491.82, -35.02, 290.90, -3321.64, 0.000, 0.000, 0.000, 17:51:17.468
164, -443.95, -10.05, 295.79, -3506.05, 0.000, 0.000, 0.000, 17:51:17.468
165, -457.04, -25.03, 275.95, -3409.45, 0.000, 0.000, 0.000, 17:51:17.485
166, -508.54, -53.87, 276.17, -3315.06, 0.000, 0.000, 0.000, 17:51:17.485
167, -502.96, -44.73, 293.98, -3419.57, 0.000, 0.000, 0.000, 17:51:17.485
168, -444.06, -11.50, 282.02, -3436.11, 0.000, 0.000, 0.000, 17:51:17.485
169, -460.75, -27.85, 256.42, -3406.79, 0.000, 0.000, 0.000, 17:51:17.498
170, -504.48, -44.69, 282.31, -3345.33, 0.000, 0.000, 0.000, 17:51:17.498
171, -485.87, -36.28, 291.86, -3310.05, 0.000, 0.000, 0.000, 17:51:17.513
172, -436.10, -9.63, 285.83, -3447.14, 0.000, 0.000, 0.000, 17:51:17.513
173, -459.42, -29.51, 266.99, -3429.91, 0.000, 0.000, 0.000, 17:51:17.514
174, -506.65, -51.83, 270.33, -3273.85, 0.000, 0.000, 0.000, 17:51:17.514
175, -489.01, -29.12, 301.59, -3347.46, 0.000, 0.000, 0.000, 17:51:17.528
176, -451.13, -3.18, 301.60, -3486.74, 0.000, 0.000, 0.000, 17:51:17.528
177, -456.12, -23.82, 272.04, -3379.02, 0.000, 0.000, 0.000, 17:51:17.543
178, -504.70, -56.01, 284.25, -3255.77, 0.000, 0.000, 0.000, 17:51:17.543
179, -495.30, -36.34, 298.90, -3346.47, 0.000, 0.000, 0.000, 17:51:17.544
180, -447.69, -7.07, 291.19, -3404.12, 0.000, 0.000, 0.000, 17:51:17.544
181, -463.18, -26.88, 270.96, -3405.67, 0.000, 0.000, 0.000, 17:51:17.558
182, -510.20, -53.37, 281.88, -3309.30, 0.000, 0.000, 0.000, 17:51:17.558
183, -499.13, -44.15, 292.54, -3335.11, 0.000, 0.000, 0.000, 17:51:17.573
184, -447.15, -12.98, 291.07, -3482.14, 0.000, 0.000, 0.000, 17:51:17.573
185, -475.12, -41.66, 268.73, -3461.49, 0.000, 0.000, 0.000, 17:51:17.588
186, -514.88, -57.53, 269.16, -3314.56, 0.000, 0.000, 0.000, 17:51:17.588
187, -490.86, -32.16, 298.46, -3330.54, 0.000, 0.000, 0.000, 17:51:17.589
188, -456.01, -14.05, 295.35, -3526.16, 0.000, 0.000, 0.000, 17:51:17.589
189, -467.14, -31.24, 269.19, -3421.21, 0.000, 0.000, 0.000, 17:51:17.603
190, -514.63, -55.62, 284.96, -3308.47, 0.000, 0.000, 0.000, 17:51:17.603
191, -504.14, -38.11, 299.74, -3391.19, 0.000, 0.000, 0.000, 17:51:17.603
192, -451.53, -8.08, 288.80, -3452.36, 0.000, 0.000, 0.000, 17:51:17.604
193, -458.49, -15.64, 277.04, -3404.58, 0.000, 0.000, 0.000, 17:51:17.618
194, -524.23, -60.72, 267.95, -3342.03, 0.000, 0.000, 0.000, 17:51:17.618
195, -492.51, -35.36, 297.53, -3327.37, 0.000, 0.000, 0.000, 17:51:17.633
196, -437.49, 1.26, 300.56, -3462.01, 0.000, 0.000, 0.000, 17:51:17.633
197, -459.51, -23.31, 275.30, -3446.73, 0.000, 0.000, 0.000, 17:51:17.634
198, -505.06, -49.94, 275.85, -3264.82, 0.000, 0.000, 0.000, 17:51:17.634
199, -487.24, -31.29, 299.30, -3312.92, 0.000, 0.000, 0.000, 17:51:17.648
200, -447.43, -7.80, 292.34, -3483.11, 0.000, 0.000, 0.000, 17:51:17.648
0, -463.52, -32.14, 262.94, -3373.42, 0.000, 0.000, 0.000, 17:51:17.648
1, -506.84, -47.46, 276.02, -3290.48, 0.000, 0.000, 0.000, 17:51:17.663
2, -500.29, -33.91, 302.49, -3410.18, 0.000, 0.000, 0.000, 17:51:17.663
3, -439.32, -5.34, 293.28, -3438.30, 0.000, 0.000, 0.000, 17:51:17.678
4, -460.19, -27.22, 265.67, -3410.46, 0.000, 0.000, 0.000, 17:51:17.678
5, -514.56, -56.15, 274.26, -3330.57, 0.000, 0.000, 0.000, 17:51:17.679
6, -498.03, -40.18, 284.98, -3329.46, 0.000, 0.000, 0.000, 17:51:17.679
7, -453.24, -13.71, 279.83, -3480.70, 0.000, 0.000, 0.000, 17:51:17.693
8, -474.06, -34.83, 264.02, -3489.17, 0.000, 0.000, 0.000, 17:51:17.693
9, -523.92, -60.68, 262.86, -3295.57, 0.000, 0.000, 0.000, 17:51:17.708
10, -503.41, -45.64, 282.18, -3362.04, 0.000, 0.000, 0.000, 17:51:17.708
11, -454.50, -18.74, 286.59, -3506.95, 0.000, 0.000, 0.000, 17:51:17.709
12, -457.08, -24.90, 274.89, -3418.52, 0.000, 0.000, 0.000, 17:51:17.709
13, -520.50, -60.22, 276.42, -3319.12, 0.000, 0.000, 0.000, 17:51:17.723
14, -508.53, -44.55, 290.90, -3409.04, 0.000, 0.000, 0.000, 17:51:17.723
15, -440.84, -0.79, 291.84, -3445.28, 0.000, 0.000, 0.000, 17:51:17.738
16, -449.92, -16.10, 284.52, -3397.68, 0.000, 0.000, 0.000, 17:51:17.738
17, -505.29, -51.30, 281.95, -3313.95, 0.000, 0.000, 0.000, 17:51:17.738
18, -480.17, -30.32, 305.96, -3299.98, 0.000, 0.000, 0.000, 17:51:17.739
19, -432.66, -3.05, 280.62, -3452.78, 0.000, 0.000, 0.000, 17:51:17.753
20, -465.72, -25.40, 269.38, -3488.56, 0.000, 0.000, 0.000, 17:51:17.753
21, -512.16, -48.70, 268.92, -3318.86, 0.000, 0.000, 0.000, 17:51:17.768
22, -491.19, -33.86, 285.73, -3345.85, 0.000, 0.000, 0.000, 17:51:17.768
23, -441.80, -11.23, 288.21, -3479.78, 0.000, 0.000, 0.000, 17:51:17.769
24, -460.72, -28.20, 259.79, -3410.55, 0.000, 0.000, 0.000, 17:51:17.769
25, -517.01, -53.88, 275.18, -3302.42, 0.000, 0.000, 0.000, 17:51:17.783
26, -517.58, -49.90, 286.23, -3416.13, 0.000, 0.000, 0.000, 17:51:17.783
27, -453.45, -10.72, 275.21, -3478.86, 0.000, 0.000, 0.000, 17:51:17.798
28, -457.37, -13.83, 260.50, -3456.22, 0.000, 0.000, 0.000, 17:51:17.798
29, -510.59, -50.56, 258.68, -3378.00, 0.000, 0.000, 0.000, 17:51:17.798
30, -494.94, -37.24, 289.70, -3345.95, 0.000, 0.000, 0.000, 17:51:17.798
31, -435.87, -9.01, 281.35, -3468.50, 0.000, 0.000, 0.000, 17:51:17.817
32, -465.05, -30.93, 260.17, -3486.85, 0.000, 0.000, 0.000, 17:51:17.817
33, -507.72, -56.23, 271.80, -3324.42, 0.000, 0.000, 0.000, 17:51:17.828
34, -496.97, -34.57, 293.22, -3340.35, 0.000, 0.000, 0.000, 17:51:17.828
35, -445.48, -4.13, 291.93, -3492.15, 0.000, 0.000, 0.000, 17:51:17.828
36, -451.56, -11.28, 276.33, -3388.91, 0.000, 0.000, 0.000, 17:51:17.828
37, -507.69, -52.60, 273.59, -3298.76, 0.000, 0.000, 0.000, 17:51:17.843
38, -499.90, -38.40, 299.52, -3387.12, 0.000, 0.000, 0.000, 17:51:17.843
39, -443.70, -6.34, 288.84, -3418.50, 0.000, 0.000, 0.000, 17:51:17.858
40, -444.97, -16.72, 273.73, -3374.47, 0.000, 0.000, 0.000, 17:51:17.858
41, -507.14, -49.20, 276.14, -3319.94, 0.000, 0.000, 0.000, 17:51:17.858
42, -493.26, -39.54, 287.61, -3329.01, 0.000, 0.000, 0.000, 17:51:17.859
43, -454.39, -12.24, 285.92, -3495.18, 0.000, 0.000, 0.000, 17:51:17.873
44, -466.24, -29.69, 276.92, -3472.99, 0.000, 0.000, 0.000, 17:51:17.873
45, -506.15, -49.58, 270.37, -3273.63, 0.000, 0.000, 0.000, 17:51:17.888
46, -490.78, -37.19, 284.36, -3326.34, 0.000, 0.000, 0.000, 17:51:17.888
47, -449.48, -20.00, 279.18, -3454.22, 0.000, 0.000, 0.000, 17:51:17.888
48, -465.09, -34.10, 256.59, -3384.90, 0.000, 0.000, 0.000, 17:51:17.888
49, -516.91, -63.60, 265.77, -3296.29, 0.000, 0.000, 0.000, 17:51:17.918
50, -511.14, -49.33, 301.93, -3405.16, 0.000, 0.000, 0.000, 17:51:17.918
51, -444.06, -6.71, 302.19, -3449.48, 0.000, 0.000, 0.000, 17:51:17.918
52, -459.48, -27.13, 280.20, -3421.11, 0.000, 0.000, 0.000, 17:51:17.918
53, -517.94, -64.02, 287.10, -3338.12, 0.000, 0.000, 0.000, 17:51:17.933
54, -498.68, -39.79, 299.99, -3321.23, 0.000, 0.000, 0.000, 17:51:17.933
55, -445.15, -11.34, 306.02, -3467.04, 0.000, 0.000, 0.000, 17:51:17.933
56, -467.17, -29.18, 283.93, -3529.99, 0.000, 0.000, 0.000, 17:51:17.933
57, -500.99, -54.41, 285.05, -3243.51, 0.000, 0.000, 0.000, 17:51:17.949
58, -486.32, -34.95, 292.67, -3302.49, 0.000, 0.000, 0.000, 17:51:17.949
59, -447.27, -10.92, 286.12, -3480.06, 0.000, 0.000, 0.000, 17:51:17.949
60, -450.01, -23.86, 261.48, -3384.27, 0.000, 0.000, 0.000, 17:51:17.949
61, -509.59, -64.03, 265.11, -3285.66, 0.000, 0.000, 0.000, 17:51:17.963
62, -509.54, -50.82, 293.11, -3383.02, 0.000, 0.000, 0.000, 17:51:17.963
63, -457.23, -23.71, 278.80, -3459.13, 0.000, 0.000, 0.000, 17:51:17.978
64, -474.72, -40.18, 260.29, -3431.63, 0.000, 0.000, 0.000, 17:51:17.978
65, -523.40, -67.31, 268.81, -3320.51, 0.000, 0.000, 0.000, 17:51:17.978
66, -506.75, -48.03, 290.35, -3307.96, 0.000, 0.000, 0.000, 17:51:17.979
67, -454.25, -22.19, 284.03, -3450.45, 0.000, 0.000, 0.000, 17:51:17.993
68, -469.95, -30.11, 274.50, -3467.89, 0.000, 0.000, 0.000, 17:51:17.993
69, -518.84, -66.31, 274.73, -3293.80, 0.000, 0.000, 0.000, 17:51:18.008
70, -506.46, -44.52, 297.92, -3341.25, 0.000, 0.000, 0.000, 17:51:18.008
71, -450.85, -12.85, 298.41, -3474.29, 0.000, 0.000, 0.000, 17:51:18.009
72, -458.26, -26.10, 270.61, -3395.69, 0.000, 0.000, 0.000, 17:51:18.009
73, -512.49, -63.05, 270.95, -3321.15, 0.000, 0.000, 0.000, 17:51:18.023
74, -505.67, -40.66, 292.75, -3391.03, 0.000, 0.000, 0.000, 17:51:18.023
75, -434.75, -5.46, 286.05, -3418.69, 0.000, 0.000, 0.000, 17:51:18.038
76, -444.31, -6.87, 268.87, -3397.84, 0.000, 0.000, 0.000, 17:51:18.038
77, -496.11, -33.52, 279.55, -3307.46, 0.000, 0.000, 0.000, 17:51:18.038
78, -485.18, -22.47, 295.47, -3298.11, 0.000, 0.000, 0.000, 17:51:18.038
79, -437.18, 0.53, 278.60, -3432.38, 0.000, 0.000, 0.000, 17:51:18.053
80, -458.84, -17.83, 269.33, -3490.02, 0.000, 0.000, 0.000, 17:51:18.053
81, -514.57, -59.51, 264.26, -3317.27, 0.000, 0.000, 0.000, 17:51:18.068
82, -509.05, -52.41, 282.56, -3344.09, 0.000, 0.000, 0.000, 17:51:18.068
83, -456.69, -11.51, 280.32, -3490.35, 0.000, 0.000, 0.000, 17:51:18.068
84, -462.00, -26.21, 261.34, -3416.63, 0.000, 0.000, 0.000, 17:51:18.068
85, -508.84, -50.58, 273.46, -3308.79, 0.000, 0.000, 0.000, 17:51:18.083
86, -513.84, -48.10, 288.15, -3385.00, 0.000, 0.000, 0.000, 17:51:18.083
87, -445.98, -11.99, 282.92, -3455.42, 0.000, 0.000, 0.000, 17:51:18.098
88, -461.20, -30.20, 263.40, -3457.77, 0.000, 0.000, 0.000, 17:51:18.098
89, -505.48, -51.21, 281.26, -3305.90, 0.000, 0.000, 0.000, 17:51:18.099
90, -497.21, -42.08, 290.89, -3289.40, 0.000, 0.000, 0.000, 17:51:18.099
91, -445.27, -6.60, 294.50, -3438.69, 0.000, 0.000, 0.000, 17:51:18.113
92, -460.71, -27.67, 276.13, -3513.38, 0.000, 0.000, 0.000, 17:51:18.113
93, -505.10, -53.98, 280.82, -3294.44, 0.000, 0.000, 0.000, 17:51:18.128
94, -502.91, -36.81, 295.15, -3338.07, 0.000, 0.000, 0.000, 17:51:18.128
95, -448.71, -6.95, 279.68, -3502.28, 0.000, 0.000, 0.000, 17:51:18.128
96, -457.65, -19.28, 259.16, -3418.46, 0.000, 0.000, 0.000, 17:51:18.128
97, -517.49, -50.02, 261.36, -3336.53, 0.000, 0.000, 0.000, 17:51:18.143
98, -503.54, -32.53, 295.85, -3404.88, 0.000, 0.000, 0.000, 17:51:18.143
99, -442.04, 0.83, 286.09, -3458.23, 0.000, 0.000, 0.000, 17:51:18.158
100, -446.82, -11.47, 265.87, -3393.33, 0.000, 0.000, 0.000, 17:51:18.158
101, -502.42, -47.12, 263.60, -3310.18, 0.000, 0.000, 0.000, 17:51:18.158
102, -490.98, -35.62, 289.50, -3261.56, 0.000, 0.000, 0.000, 17:51:18.159
103, -439.82, -8.60, 285.46, -3417.70, 0.000, 0.000, 0.000, 17:51:18.173
104, -463.92, -27.42, 256.79, -3452.95, 0.000, 0.000, 0.000, 17:51:18.173
105, -510.58, -58.62, 263.05, -3261.15, 0.000, 0.000, 0.000, 17:51:18.188
106, -495.70, -34.78, 296.24, -3281.03, 0.000, 0.000, 0.000, 17:51:18.188
107, -449.53, -13.14, 294.39, -3446.61, 0.000, 0.000, 0.000, 17:51:18.188
108, -456.41, -17.44, 258.38, -3371.00, 0.000, 0.000, 0.000, 17:51:18.189
109, -503.90, -54.28, 267.22, -3261.06, 0.000, 0.000, 0.000, 17:51:18.203
110, -510.35, -44.40, 298.24, -3360.06, 0.000, 0.000, 0.000, 17:51:18.203
111, -445.65, -14.45, 287.68, -3425.10, 0.000, 0.000, 0.000, 17:51:18.233
112, -457.92, -24.34, 272.22, -3392.60, 0.000, 0.000, 0.000, 17:51:18.233
113, -517.77, -57.22, 280.67, -3303.16, 0.000, 0.000, 0.000, 17:51:18.233
114, -495.75, -37.08, 300.97, -3289.16, 0.000, 0.000, 0.000, 17:51:18.233
115, -450.40, -8.33, 294.53, -3449.23, 0.000, 0.000, 0.000, 17:51:18.234
116, -453.03, -18.77, 270.60, -3421.10, 0.000, 0.000, 0.000, 17:51:18.234
117, -505.59, -47.29, 276.24, -3294.78, 0.000, 0.000, 0.000, 17:51:18.235
118, -496.87, -34.75, 298.23, -3364.19, 0.000, 0.000, 0.000, 17:51:18.235
119, -471.51, -11.99, 308.32, -3654.85, 0.000, 0.000, 0.000, 17:51:18.248
120, -451.80, -16.64, 262.14, -3424.46, 0.000, 0.000, 0.000, 17:51:18.248
121, -510.41, -47.87, 265.78, -3292.79, 0.000, 0.000, 0.000, 17:51:18.263
122, -493.80, -31.58, 294.27, -3345.36, 0.000, 0.000, 0.000, 17:51:18.263
123, -444.08, -5.64, 281.81, -3445.00, 0.000, 0.000, 0.000, 17:51:18.278
124, -444.65, -12.34, 265.92, -3451.39, 0.000, 0.000, 0.000, 17:51:18.278
125, -494.21, -38.79, 273.82, -3324.87, 0.000, 0.000, 0.000, 17:51:18.279
126, -481.41, -26.93, 290.02, -3297.66, 0.000, 0.000, 0.000, 17:51:18.279
127, -438.59, -5.36, 285.92, -3485.34, 0.000, 0.000, 0.000, 17:51:18.293
128, -455.11, -24.09, 261.05, -3495.40, 0.000, 0.000, 0.000, 17:51:18.293
129, -505.20, -50.14, 260.28, -3329.42, 0.000, 0.000, 0.000, 17:51:18.308
130, -494.11, -33.66, 287.04, -3372.08, 0.000, 0.000, 0.000, 17:51:18.308
131, -443.72, -0.15, 288.91, -3496.97, 0.000, 0.000, 0.000, 17:51:18.308
132, -440.49, -8.68, 268.47, -3414.98, 0.000, 0.000, 0.000, 17:51:18.308
133, -490.10, -36.92, 266.63, -3288.06, 0.000, 0.000, 0.000, 17:51:18.323
134, -485.83, -22.95, 291.67, -3393.60, 0.000, 0.000, 0.000, 17:51:18.323
135, -420.52, 15.79, 293.42, -3486.85, 0.000, 0.000, 0.000, 17:51:18.338
136, -417.76, 11.27, 283.65, -3432.83, 0.000, 0.000, 0.000, 17:51:18.338
137, -466.35, -14.65, 289.60, -3338.39, 0.000, 0.000, 0.000, 17:51:18.339
138, -460.06, -9.21, 292.15, -3324.89, 0.000, 0.000, 0.000, 17:51:18.339
139, -401.71, 34.34, 293.19, -3447.27, 0.000, 0.000, 0.000, 17:51:18.353
140, -408.24, 27.41, 281.22, -3472.00, 0.000, 0.000, 0.000, 17:51:18.353
141, -446.00, 14.55, 279.22, -3276.86, 0.000, 0.000, 0.000, 17:51:18.368
142, -438.43, 18.28, 301.73, -3308.56, 0.000, 0.000, 0.000, 17:51:18.368
143, -383.29, 50.80, 312.21, -3424.91, 0.000, 0.000, 0.000, 17:51:18.369
144, -385.79, 44.93, 261.65, -3378.12, 0.000, 0.000, 0.000, 17:51:18.369
145, -455.33, -1.08, 273.87, -3290.91, 0.000, 0.000, 0.000, 17:51:18.383
146, -462.80, -3.41, 293.44, -3331.54, 0.000, 0.000, 0.000, 17:51:18.383
147, -403.05, 26.26, 289.45, -3426.49, 0.000, 0.000, 0.000, 17:51:18.398
148, -424.52, 5.78, 258.79, -3424.61, 0.000, 0.000, 0.000, 17:51:18.398
149, -478.94, -26.20, 275.83, -3295.97, 0.000, 0.000, 0.000, 17:51:18.398
150, -466.89, -15.43, 300.04, -3283.32, 0.000, 0.000, 0.000, 17:51:18.398
151, -430.08, -2.16, 293.72, -3458.67, 0.000, 0.000, 0.000, 17:51:18.413
152, -450.33, -21.64, 269.10, -3500.94, 0.000, 0.000, 0.000, 17:51:18.413
153, -502.20, -50.52, 270.35, -3282.25, 0.000, 0.000, 0.000, 17:51:18.428
154, -491.81, -36.94, 303.09, -3311.42, 0.000, 0.000, 0.000, 17:51:18.428
155, -455.33, -10.63, 295.61, -3463.21, 0.000, 0.000, 0.000, 17:51:18.429
156, -465.60, -30.89, 271.52, -3414.33, 0.000, 0.000, 0.000, 17:51:18.429
157, -523.99, -65.81, 268.22, -3309.51, 0.000, 0.000, 0.000, 17:51:18.443
158, -529.17, -62.68, 287.67, -3371.11, 0.000, 0.000, 0.000, 17:51:18.443
159, -466.53, -23.03, 284.20, -3417.95, 0.000, 0.000, 0.000, 17:51:18.458
160, -475.72, -32.73, 274.06, -3407.48, 0.000, 0.000, 0.000, 17:51:18.458
161, -540.09, -74.27, 267.77, -3333.49, 0.000, 0.000, 0.000, 17:51:18.458
162, -531.28, -66.78, 276.61, -3297.37, 0.000, 0.000, 0.000, 17:51:18.458
163, -473.88, -31.72, 279.84, -3436.42, 0.000, 0.000, 0.000, 17:51:18.473
164, -493.60, -52.55, 268.65, -3518.17, 0.000, 0.000, 0.000, 17:51:18.473
165, -532.86, -74.80, 271.32, -3289.97, 0.000, 0.000, 0.000, 17:51:18.488
166, -527.49, -67.88, 280.54, -3305.47, 0.000, 0.000, 0.000, 17:51:18.488
167, -467.96, -33.11, 277.64, -3453.80, 0.000, 0.000, 0.000, 17:51:18.489
168, -462.53, -39.60, 268.04, -3393.63, 0.000, 0.000, 0.000, 17:51:18.489
169, -522.44, -66.66, 271.03, -3294.21, 0.000, 0.000, 0.000, 17:51:18.503
170, -520.09, -57.52, 294.53, -3369.33, 0.000, 0.000, 0.000, 17:51:18.503
171, -461.17, -22.45, 288.00, -3459.68, 0.000, 0.000, 0.000, 17:51:18.518
172, -462.76, -28.09, 275.95, -3437.51, 0.000, 0.000, 0.000, 17:51:18.518
173, -517.35, -59.53, 279.86, -3370.70, 0.000, 0.000, 0.000, 17:51:18.519
174, -510.94, -59.73, 288.57, -3335.98, 0.000, 0.000, 0.000, 17:51:18.519
175, -452.40, -25.69, 282.99, -3463.74, 0.000, 0.000, 0.000, 17:51:18.533
176, -455.77, -23.35, 273.05, -3509.89, 0.000, 0.000, 0.000, 17:51:18.533
177, -500.91, -54.26, 273.03, -3280.27, 0.000, 0.000, 0.000, 17:51:18.548
178, -496.40, -41.85, 294.13, -3310.93, 0.000, 0.000, 0.000, 17:51:18.548
179, -455.59, -20.37, 292.53, -3472.14, 0.000, 0.000, 0.000, 17:51:18.548
180, -452.16, -21.53, 273.78, -3425.66, 0.000, 0.000, 0.000, 17:51:18.548
181, -510.61, -59.38, 263.96, -3330.12, 0.000, 0.000, 0.000, 17:51:18.563
182, -515.95, -48.27, 294.47, -3413.17, 0.000, 0.000, 0.000, 17:51:18.563
183, -449.63, -13.59, 289.99, -3453.78, 0.000, 0.000, 0.000, 17:51:18.578
184, -463.13, -34.13, 258.78, -3461.89, 0.000, 0.000, 0.000, 17:51:18.578
185, -517.61, -63.58, 263.61, -3362.19, 0.000, 0.000, 0.000, 17:51:18.579
186, -501.01, -40.38, 291.18, -3313.42, 0.000, 0.000, 0.000, 17:51:18.579
187, -448.28, -13.60, 286.19, -3447.95, 0.000, 0.000, 0.000, 17:51:18.593
188, -460.34, -24.11, 270.22, -3485.49, 0.000, 0.000, 0.000, 17:51:18.593
189, -510.62, -58.46, 262.24, -3324.63, 0.000, 0.000, 0.000, 17:51:18.608
190, -500.49, -45.60, 295.33, -3314.42, 0.000, 0.000, 0.000, 17:51:18.608
191, -440.22, -7.98, 304.11, -3436.65, 0.000, 0.000, 0.000, 17:51:18.608
192, -443.81, -21.57, 275.06, -3379.04, 0.000, 0.000, 0.000, 17:51:18.609
193, -508.42, -55.67, 270.39, -3266.68, 0.000, 0.000, 0.000, 17:51:18.623
194, -511.35, -46.24, 290.94, -3388.38, 0.000, 0.000, 0.000, 17:51:18.623
195, -451.71, -16.99, 280.66, -3441.58, 0.000, 0.000, 0.000, 17:51:18.638
196, -462.71, -27.11, 269.56, -3476.23, 0.000, 0.000, 0.000, 17:51:18.638
197, -515.18, -56.68, 274.26, -3325.71, 0.000, 0.000, 0.000, 17:51:18.638
198, -503.81, -42.30, 286.82, -3315.46, 0.000, 0.000, 0.000, 17:51:18.638
199, -449.93, -10.74, 286.00, -3453.25, 0.000, 0.000, 0.000, 17:51:18.653
200, -456.43, -21.81, 269.85, -3506.41, 0.000, 0.000, 0.000, 17:51:18.653
0, -514.57, -54.84, 258.33, -3304.84, 0.000, 0.000, 0.000, 17:51:18.653
1, -510.10, -41.15, 281.50, -3332.03, 0.000, 0.000, 0.000, 17:51:18.668
2, -449.40, -10.03, 293.25, -3501.59, 0.000, 0.000, 0.000, 17:51:18.668
3, -442.30, -9.98, 278.99, -3429.94, 0.000, 0.000, 0.000, 17:51:18.683
4, -512.91, -51.72, 271.75, -3304.28, 0.000, 0.000, 0.000, 17:51:18.683
5, -507.05, -47.00, 295.33, -3332.02, 0.000, 0.000, 0.000, 17:51:18.683
6, -446.42, -12.48, 288.45, -3419.38, 0.000, 0.000, 0.000, 17:51:18.683
7, -445.06, -17.71, 274.34, -3418.76, 0.000, 0.000, 0.000, 17:51:18.698
8, -506.05, -48.23, 279.55, -3366.66, 0.000, 0.000, 0.000, 17:51:18.698
9, -494.08, -38.87, 292.98, -3287.07, 0.000, 0.000, 0.000, 17:51:18.713
10, -438.02, -7.18, 298.30, -3444.82, 0.000, 0.000, 0.000, 17:51:18.713
11, -451.73, -21.16, 274.30, -3459.16, 0.000, 0.000, 0.000, 17:51:18.714
12, -494.94, -46.64, 278.56, -3285.80, 0.000, 0.000, 0.000, 17:51:18.714
13, -499.23, -49.12, 286.74, -3343.23, 0.000, 0.000, 0.000, 17:51:18.728
14, -452.99, -16.50, 300.44, -3489.47, 0.000, 0.000, 0.000, 17:51:18.728
15, -452.59, -14.73, 268.75, -3430.48, 0.000, 0.000, 0.000, 17:51:18.743
16, -507.21, -49.62, 276.56, -3305.94, 0.000, 0.000, 0.000, 17:51:18.743
17, -502.71, -41.14, 308.61, -3367.62, 0.000, 0.000, 0.000, 17:51:18.743
18, -453.71, -10.78, 292.27, -3434.66, 0.000, 0.000, 0.000, 17:51:18.743
19, -454.18, -19.20, 278.44, -3436.87, 0.000, 0.000, 0.000, 17:51:18.773
20, -507.61, -52.57, 285.05, -3349.31, 0.000, 0.000, 0.000, 17:51:18.773
21, -510.52, -47.17, 295.32, -3315.46, 0.000, 0.000, 0.000, 17:51:18.773
22, -448.11, -13.11, 298.24, -3447.09, 0.000, 0.000, 0.000, 17:51:18.773
23, -454.71, -19.77, 275.23, -3460.56, 0.000, 0.000, 0.000, 17:51:18.774
24, -503.82, -46.72, 280.22, -3302.10, 0.000, 0.000, 0.000, 17:51:18.774
25, -493.99, -33.69, 305.85, -3341.98, 0.000, 0.000, 0.000, 17:51:18.788
26, -455.94, -12.49, 298.20, -3572.88, 0.000, 0.000, 0.000, 17:51:18.788
27, -440.47, -11.19, 275.42, -3425.09, 0.000, 0.000, 0.000, 17:51:18.803
28, -503.76, -45.65, 269.37, -3315.79, 0.000, 0.000, 0.000, 17:51:18.803
29, -502.43, -35.77, 289.85, -3309.20, 0.000, 0.000, 0.000, 17:51:18.803
30, -442.81, -4.75, 284.24, -3387.40, 0.000, 0.000, 0.000, 17:51:18.803
31, -444.52, -13.80, 263.78, -3429.39, 0.000, 0.000, 0.000, 17:51:18.818
32, -509.39, -52.92, 268.62, -3379.37, 0.000, 0.000, 0.000, 17:51:18.818
33, -495.79, -44.57, 284.73, -3352.14, 0.000, 0.000, 0.000, 17:51:18.833
34, -448.83, -12.09, 283.54, -3456.13, 0.000, 0.000, 0.000, 17:51:18.833
35, -452.79, -19.86, 262.43, -3475.07, 0.000, 0.000, 0.000, 17:51:18.834
36, -497.18, -40.94, 274.13, -3260.60, 0.000, 0.000, 0.000, 17:51:18.834
37, -500.28, -41.30, 290.90, -3291.16, 0.000, 0.000, 0.000, 17:51:18.848
38, -450.99, -15.19, 295.07, -3511.97, 0.000, 0.000, 0.000, 17:51:18.848
39, -447.75, -18.88, 274.02, -3423.89, 0.000, 0.000, 0.000, 17:51:18.878
40, -498.75, -47.08, 266.65, -3307.21, 0.000, 0.000, 0.000, 17:51:18.878
41, -500.33, -38.09, 285.37, -3384.66, 0.000, 0.000, 0.000, 17:51:18.878
42, -452.53, -10.95, 284.43, -3471.09, 0.000, 0.000, 0.000, 17:51:18.878
43, -443.60, -7.53, 274.10, -3448.09, 0.000, 0.000, 0.000, 17:51:18.879
44, -504.87, -51.43, 274.03, -3286.24, 0.000, 0.000, 0.000, 17:51:18.879
45, -497.78, -46.00, 298.75, -3287.74, 0.000, 0.000, 0.000, 17:51:18.880
46, -455.78, -12.63, 282.83, -3429.58, 0.000, 0.000, 0.000, 17:51:18.880
47, -474.00, -24.85, 268.71, -3597.94, 0.000, 0.000, 0.000, 17:51:18.893
48, -508.36, -56.02, 267.79, -3278.61, 0.000, 0.000, 0.000, 17:51:18.893
49, -508.57, -49.84, 294.06, -3317.18, 0.000, 0.000, 0.000, 17:51:18.908
50, -452.31, -7.84, 293.85, -3448.83, 0.000, 0.000, 0.000, 17:51:18.908
51, -462.57, -29.84, 261.88, -3409.23, 0.000, 0.000, 0.000, 17:51:18.923
52, -506.21, -52.87, 271.43, -3295.17, 0.000, 0.000, 0.000, 17:51:18.923
53, -506.40, -43.25, 301.63, -3318.48, 0.000, 0.000, 0.000, 17:51:18.923
54, -447.82, -12.97, 297.23, -3421.77, 0.000, 0.000, 0.000, 17:51:18.923
55, -452.65, -18.45, 276.21, -3444.59, 0.000, 0.000, 0.000, 17:51:18.938
56, -510.48, -47.07, 277.77, -3342.40, 0.000, 0.000, 0.000, 17:51:18.938
57, -497.08, -38.19, 289.97, -3270.12, 0.000, 0.000, 0.000, 17:51:18.953
58, -455.13, -6.69, 283.82, -3438.30, 0.000, 0.000, 0.000, 17:51:18.953
59, -453.44, -19.38, 266.02, -3498.24, 0.000, 0.000, 0.000, 17:51:18.953
60, -501.29, -48.67, 274.05, -3309.02, 0.000, 0.000, 0.000, 17:51:18.953
61, -504.94, -41.23, 289.56, -3344.89, 0.000, 0.000, 0.000, 17:51:18.968
62, -447.43, -4.84, 295.40, -3502.05, 0.000, 0.000, 0.000, 17:51:18.968
63, -437.97, -12.14, 272.69, -3402.65, 0.000, 0.000, 0.000, 17:51:18.983
64, -490.22, -46.08, 277.73, -3313.88, 0.000, 0.000, 0.000, 17:51:18.983
65, -503.03, -47.41, 287.54, -3324.50, 0.000, 0.000, 0.000, 17:51:18.984
66, -450.18, -22.67, 277.37, -3423.66, 0.000, 0.000, 0.000, 17:51:18.984
67, -442.98, -7.79, 275.70, -3413.57, 0.000, 0.000, 0.000, 17:51:18.998
68, -514.34, -49.67, 268.78, -3364.55, 0.000, 0.000, 0.000, 17:51:18.998
69, -510.11, -46.95, 278.82, -3300.79, 0.000, 0.000, 0.000, 17:51:19.013
70, -460.45, -18.68, 285.14, -3446.25, 0.000, 0.000, 0.000, 17:51:19.013
71, -456.66, -21.18, 275.97, -3458.49, 0.000, 0.000, 0.000, 17:51:19.013
72, -505.39, -51.52, 269.91, -3268.10, 0.000, 0.000, 0.000, 17:51:19.013
73, -504.16, -40.00, 291.69, -3269.92, 0.000, 0.000, 0.000, 17:51:19.028
74, -453.43, -12.72, 292.48, -3476.29, 0.000, 0.000, 0.000, 17:51:19.028
75, -453.02, -20.12, 269.37, -3418.16, 0.000, 0.000, 0.000, 17:51:19.043
76, -498.69, -46.70, 270.37, -3310.52, 0.000, 0.000, 0.000, 17:51:19.043
77, -506.09, -48.15, 293.45, -3344.06, 0.000, 0.000, 0.000, 17:51:19.044
78, -455.44, -19.68, 289.21, -3445.76, 0.000, 0.000, 0.000, 17:51:19.044
79, -449.52, -19.35, 277.29, -3451.46, 0.000, 0.000, 0.000, 17:51:19.058
80, -513.47, -52.31, 274.92, -3410.33, 0.000, 0.000, 0.000, 17:51:19.058
81, -503.13, -39.50, 292.64, -3320.64, 0.000, 0.000, 0.000, 17:51:19.073
82, -446.92, -13.06, 292.52, -3440.31, 0.000, 0.000, 0.000, 17:51:19.073
83, -451.02, -21.34, 279.34, -3477.00, 0.000, 0.000, 0.000, 17:51:19.074
84, -501.44, -51.71, 269.77, -3309.45, 0.000, 0.000, 0.000, 17:51:19.074
85, -496.91, -42.45, 290.75, -3315.90, 0.000, 0.000, 0.000, 17:51:19.088
86, -450.63, -12.65, 289.88, -3489.24, 0.000, 0.000, 0.000, 17:51:19.088
87, -437.15, -9.90, 270.11, -3406.02, 0.000, 0.000, 0.000, 17:51:19.103
88, -493.77, -44.87, 270.73, -3300.03, 0.000, 0.000, 0.000, 17:51:19.103
89, -501.36, -45.02, 286.06, -3384.07, 0.000, 0.000, 0.000, 17:51:19.104
90, -443.11, -14.47, 296.70, -3439.38, 0.000, 0.000, 0.000, 17:51:19.104
91, -448.01, -14.69, 272.62, -3451.43, 0.000, 0.000, 0.000, 17:51:19.118
92, -486.74, -38.49, 284.78, -3341.83, 0.000, 0.000, 0.000, 17:51:19.118
93, -491.76, -34.96, 287.92, -3256.12, 0.000, 0.000, 0.000, 17:51:19.133
94, -439.04, -2.76, 282.58, -3430.83, 0.000, 0.000, 0.000, 17:51:19.133
95, -455.98, -21.07, 259.83, -3472.03, 0.000, 0.000, 0.000, 17:51:19.133
96, -489.17, -40.15, 269.63, -3269.29, 0.000, 0.000, 0.000, 17:51:19.133
97, -497.88, -37.71, 286.40, -3282.86, 0.000, 0.000, 0.000, 17:51:19.148
98, -456.98, -14.72, 285.78, -3487.10, 0.000, 0.000, 0.000, 17:51:19.148
99, -442.36, -14.70, 276.03, -3421.83, 0.000, 0.000, 0.000, 17:51:19.163
100, -498.96, -44.01, 270.08, -3307.69, 0.000, 0.000, 0.000, 17:51:19.163
101, -499.34, -35.87, 298.70, -3322.33, 0.000, 0.000, 0.000, 17:51:19.163
102, -445.60, -6.75, 295.52, -3429.82, 0.000, 0.000, 0.000, 17:51:19.164
103, -449.99, -17.52, 274.58, -3443.30, 0.000, 0.000, 0.000, 17:51:19.193
104, -505.64, -46.77, 285.41, -3348.12, 0.000, 0.000, 0.000, 17:51:19.193
105, -502.59, -42.78, 300.70, -3268.33, 0.000, 0.000, 0.000, 17:51:19.193
106, -448.85, -7.50, 294.03, -3397.30, 0.000, 0.000, 0.000, 17:51:19.193
107, -444.32, -14.44, 274.38, -3424.26, 0.000, 0.000, 0.000, 17:51:19.194
108, -497.00, -45.48, 275.12, -3289.98, 0.000, 0.000, 0.000, 17:51:19.194
109, -495.79, -36.86, 294.68, -3313.80, 0.000, 0.000, 0.000, 17:51:19.208
110, -462.72, -10.37, 297.21, -3586.74, 0.000, 0.000, 0.000, 17:51:19.208
111, -452.01, -19.57, 261.73, -3463.39, 0.000, 0.000, 0.000, 17:51:19.223
112, -508.53, -56.63, 256.43, -3340.01, 0.000, 0.000, 0.000, 17:51:19.223
113, -507.89, -45.93, 285.65, -3360.63, 0.000, 0.000, 0.000, 17:51:19.223
114, -443.83, -7.69, 286.88, -3431.26, 0.000, 0.000, 0.000, 17:51:19.223
115, -448.05, -9.07, 268.14, -3458.94, 0.000, 0.000, 0.000, 17:51:19.238
116, -502.73, -46.30, 269.81, -3380.54, 0.000, 0.000, 0.000, 17:51:19.238
117, -497.52, -41.74, 295.64, -3302.13, 0.000, 0.000, 0.000, 17:51:19.253
118, -443.85, -4.35, 293.43, -3421.36, 0.000, 0.000, 0.000, 17:51:19.253
119, -440.16, -13.48, 274.29, -3473.05, 0.000, 0.000, 0.000, 17:51:19.253
120, -495.95, -45.21, 273.60, -3293.46, 0.000, 0.000, 0.000, 17:51:19.254
121, -499.78, -35.00, 302.38, -3303.77, 0.000, 0.000, 0.000, 17:51:19.268
122, -453.30, -11.11, 306.86, -3496.28, 0.000, 0.000, 0.000, 17:51:19.268
123, -435.28, -9.05, 283.82, -3428.38, 0.000, 0.000, 0.000, 17:51:19.283
124, -495.76, -44.44, 279.59, -3297.15, 0.000, 0.000, 0.000, 17:51:19.283
125, -504.08, -41.44, 307.13, -3337.57, 0.000, 0.000, 0.000, 17:51:19.283
126, -445.54, -7.82, 296.39, -3380.89, 0.000, 0.000, 0.000, 17:51:19.283
127, -440.82, -12.32, 283.44, -3404.96, 0.000, 0.000, 0.000, 17:51:19.298
128, -503.60, -53.69, 289.05, -3350.41, 0.000, 0.000, 0.000, 17:51:19.298
129, -505.11, -48.30, 294.98, -3331.00, 0.000, 0.000, 0.000, 17:51:19.313
130, -453.20, -8.29, 294.75, -3464.52, 0.000, 0.000, 0.000, 17:51:19.313
131, -454.18, -12.68, 281.19, -3482.85, 0.000, 0.000, 0.000, 17:51:19.314
132, -497.60, -39.81, 282.64, -3266.87, 0.000, 0.000, 0.000, 17:51:19.314
133, -496.48, -43.94, 299.88, -3270.38, 0.000, 0.000, 0.000, 17:51:19.328
134, -451.89, -16.05, 297.89, -3486.70, 0.000, 0.000, 0.000, 17:51:19.328
135, -446.36, -13.47, 274.18, -3420.83, 0.000, 0.000, 0.000, 17:51:19.343
136, -499.86, -46.07, 280.80, -3305.37, 0.000, 0.000, 0.000, 17:51:19.343
137, -499.23, -42.98, 299.11, -3302.70, 0.000, 0.000, 0.000, 17:51:19.343
138, -435.04, -11.65, 299.11, -3363.95, 0.000, 0.000, 0.000, 17:51:19.343
139, -435.99, -12.53, 282.82, -3429.89, 0.000, 0.000, 0.000, 17:51:19.358
140, -505.34, -55.52, 272.00, -3348.47, 0.000, 0.000, 0.000, 17:51:19.358
141, -492.16, -36.17, 298.36, -3243.41, 0.000, 0.000, 0.000, 17:51:19.373
142, -453.03, -18.19, 288.42, -3416.89, 0.000, 0.000, 0.000, 17:51:19.373
143, -446.40, -15.12, 286.36, -3454.14, 0.000, 0.000, 0.000, 17:51:19.374
144, -499.03, -46.98, 280.11, -3293.98, 0.000, 0.000, 0.000, 17:51:19.374
145, -506.23, -47.35, 287.18, -3304.43, 0.000, 0.000, 0.000, 17:51:19.388
146, -463.29, -17.26, 296.27, -3504.04, 0.000, 0.000, 0.000, 17:51:19.388
147, -447.32, -16.08, 269.84, -3430.46, 0.000, 0.000, 0.000, 17:51:19.403
148, -494.24, -50.18, 268.18, -3295.35, 0.000, 0.000, 0.000, 17:51:19.403
149, -495.01, -38.35, 299.75, -3308.39, 0.000, 0.000, 0.000, 17:51:19.403
150, -442.44, -7.41, 293.96, -3403.16, 0.000, 0.000, 0.000, 17:51:19.403
151, -443.68, -16.03, 269.38, -3459.63, 0.000, 0.000, 0.000, 17:51:19.418
152, -506.21, -56.64, 270.48, -3364.17, 0.000, 0.000, 0.000, 17:51:19.418
153, -510.69, -57.98, 282.09, -3275.82, 0.000, 0.000, 0.000, 17:51:19.433
154, -457.52, -14.55, 290.03, -3420.49, 0.000, 0.000, 0.000, 17:51:19.433
155, -450.14, -13.92, 281.42, -3458.22, 0.000, 0.000, 0.000, 17:51:19.433
156, -504.25, -48.66, 271.65, -3261.16, 0.000, 0.000, 0.000, 17:51:19.433
157, -502.89, -44.71, 293.52, -3280.00, 0.000, 0.000, 0.000, 17:51:19.448
158, -459.10, -21.50, 294.34, -3492.86, 0.000, 0.000, 0.000, 17:51:19.448
159, -437.93, -9.72, 276.71, -3394.99, 0.000, 0.000, 0.000, 17:51:19.463
160, -496.17, -48.44, 271.77, -3316.23, 0.000, 0.000, 0.000, 17:51:19.463
161, -510.52, -52.39, 287.78, -3344.40, 0.000, 0.000, 0.000, 17:51:19.464
162, -459.28, -18.65, 275.06, -3444.88, 0.000, 0.000, 0.000, 17:51:19.464
163, -446.24, -13.04, 276.20, -3451.46, 0.000, 0.000, 0.000, 17:51:19.478
164, -505.13, -45.14, 285.27, -3372.99, 0.000, 0.000, 0.000, 17:51:19.478
165, -508.77, -46.78, 288.62, -3311.93, 0.000, 0.000, 0.000, 17:51:19.493
166, -448.29, -7.13, 297.44, -3437.19, 0.000, 0.000, 0.000, 17:51:19.493
167, -437.94, -5.74, 280.84, -3442.18, 0.000, 0.000, 0.000, 17:51:19.494
168, -493.12, -44.43, 272.34, -3276.60, 0.000, 0.000, 0.000, 17:51:19.494
169, -504.98, -46.76, 288.46, -3289.09, 0.000, 0.000, 0.000, 17:51:19.508
170, -452.35, -12.27, 300.96, -3497.45, 0.000, 0.000, 0.000, 17:51:19.508
171, -438.91, -15.69, 273.84, -3437.86, 0.000, 0.000, 0.000, 17:51:19.523
172, -494.05, -46.01, 266.54, -3333.74, 0.000, 0.000, 0.000, 17:51:19.523
173, -499.39, -42.40, 298.92, -3304.95, 0.000, 0.000, 0.000, 17:51:19.523
174, -444.69, -6.25, 294.05, -3393.31, 0.000, 0.000, 0.000, 17:51:19.524
175, -440.24, -9.03, 277.11, -3435.17, 0.000, 0.000, 0.000, 17:51:19.538
176, -501.12, -51.31, 268.62, -3366.63, 0.000, 0.000, 0.000, 17:51:19.538
177, -497.40, -45.92, 280.57, -3281.41, 0.000, 0.000, 0.000, 17:51:19.553
178, -450.63, -18.72, 287.21, -3441.28, 0.000, 0.000, 0.000, 17:51:19.553
179, -449.81, -24.46, 276.69, -3486.83, 0.000, 0.000, 0.000, 17:51:19.554
180, -496.27, -46.76, 270.02, -3302.54, 0.000, 0.000, 0.000, 17:51:19.554
181, -499.28, -41.67, 295.22, -3303.87, 0.000, 0.000, 0.000, 17:51:19.568
182, -455.68, -14.30, 304.52, -3462.99, 0.000, 0.000, 0.000, 17:51:19.568
183, -438.79, -12.57, 283.65, -3423.53, 0.000, 0.000, 0.000, 17:51:19.583
184, -500.38, -50.69, 274.75, -3289.73, 0.000, 0.000, 0.000, 17:51:19.583
185, -511.12, -48.61, 295.49, -3311.78, 0.000, 0.000, 0.000, 17:51:19.583
186, -449.90, -13.56, 285.41, -3426.37, 0.000, 0.000, 0.000, 17:51:19.584
187, -445.77, -17.46, 274.06, -3527.43, 0.000, 0.000, 0.000, 17:51:19.598
188, -507.19, -49.86, 278.04, -3457.97, 0.000, 0.000, 0.000, 17:51:19.598
189, -505.05, -36.36, 295.30, -3300.69, 0.000, 0.000, 0.000, 17:51:19.613
190, -451.95, -11.01, 285.41, -3459.55, 0.000, 0.000, 0.000, 17:51:19.613
191, -439.10, -6.00, 273.16, -3499.25, 0.000, 0.000, 0.000, 17:51:19.614
192, -493.15, -41.36, 269.48, -3323.05, 0.000, 0.000, 0.000, 17:51:19.614
193, -498.23, -40.76, 294.37, -3297.38, 0.000, 0.000, 0.000, 17:51:19.628
194, -456.80, -11.41, 295.34, -3455.38, 0.000, 0.000, 0.000, 17:51:19.628
195, -438.65, -2.66, 274.25, -3421.69, 0.000, 0.000, 0.000, 17:51:19.643
196, -492.88, -40.33, 266.27, -3311.42, 0.000, 0.000, 0.000, 17:51:19.643
197, -502.36, -43.60, 296.79, -3346.37, 0.000, 0.000, 0.000, 17:51:19.644
198, -454.12, -14.03, 290.05, -3435.37, 0.000, 0.000, 0.000, 17:51:19.644
199, -443.28, -10.02, 271.05, -3438.73, 0.000, 0.000, 0.000, 17:51:19.658
200, -500.89, -52.76, 286.46, -3372.60, 0.000, 0.000, 0.000, 17:51:19.658
0, -499.39, -41.11, 290.32, -3314.01, 0.000, 0.000, 0.000, 17:51:19.658
1, -458.41, -13.66, 290.71, -3460.95, 0.000, 0.000, 0.000, 17:51:19.673
2, -450.85, -14.83, 280.09, -3552.07, 0.000, 0.000, 0.000, 17:51:19.673
3, -491.40, -39.04, 273.24, -3308.98, 0.000, 0.000, 0.000, 17:51:19.688
4, -510.71, -47.88, 281.60, -3325.35, 0.000, 0.000, 0.000, 17:51:19.688
5, -448.16, -6.62, 289.28, -3455.98, 0.000, 0.000, 0.000, 17:51:19.689
6, -436.50, -9.60, 268.69, -3429.92, 0.000, 0.000, 0.000, 17:51:19.689
7, -505.69, -52.84, 268.83, -3358.59, 0.000, 0.000, 0.000, 17:51:19.703
8, -509.07, -43.40, 298.79, -3387.81, 0.000, 0.000, 0.000, 17:51:19.703
9, -446.02, -6.10, 291.86, -3412.37, 0.000, 0.000, 0.000, 17:51:19.718
10, -445.53, -11.00, 266.10, -3462.90, 0.000, 0.000, 0.000, 17:51:19.718
11, -504.34, -48.59, 267.55, -3387.47, 0.000, 0.000, 0.000, 17:51:19.718
12, -504.20, -42.30, 289.23, -3310.59, 0.000, 0.000, 0.000, 17:51:19.718
13, -447.36, -9.41, 299.43, -3471.59, 0.000, 0.000, 0.000, 17:51:19.733
14, -442.80, -8.23, 295.43, -3489.51, 0.000, 0.000, 0.000, 17:51:19.733
15, -492.20, -44.69, 272.64, -3332.49, 0.000, 0.000, 0.000, 17:51:19.748
16, -506.44, -50.51, 290.77, -3312.29, 0.000, 0.000, 0.000, 17:51:19.748
17, -448.70, -11.92, 303.95, -3438.96, 0.000, 0.000, 0.000, 17:51:19.749
18, -429.01, -0.14, 284.76, -3429.25, 0.000, 0.000, 0.000, 17:51:19.749
19, -498.21, -49.77, 271.80, -3325.44, 0.000, 0.000, 0.000, 17:51:19.763
20, -513.76, -49.74, 295.93, -3366.85, 0.000, 0.000, 0.000, 17:51:19.763
21, -447.28, -10.45, 297.81, -3431.28, 0.000, 0.000, 0.000, 17:51:19.778
22, -440.48, -17.39, 275.05, -3458.32, 0.000, 0.000, 0.000, 17:51:19.778
23, -494.64, -46.21, 269.24, -3346.13, 0.000, 0.000, 0.000, 17:51:19.779
24, -502.29, -43.31, 282.84, -3282.97, 0.000, 0.000, 0.000, 17:51:19.779
25, -447.73, -11.33, 291.15, -3446.32, 0.000, 0.000, 0.000, 17:51:19.793
26, -446.43, -4.83, 273.97, -3509.96, 0.000, 0.000, 0.000, 17:51:19.793
27, -489.41, -40.31, 270.30, -3268.28, 0.000, 0.000, 0.000, 17:51:19.808
28, -500.76, -46.14, 287.44, -3281.49, 0.000, 0.000, 0.000, 17:51:19.808
29, -455.47, -18.85, 292.37, -3474.98, 0.000, 0.000, 0.000, 17:51:19.808
30, -445.23, -11.29, 269.20, -3467.25, 0.000, 0.000, 0.000, 17:51:19.808
31, -496.17, -44.18, 270.47, -3363.68, 0.000, 0.000, 0.000, 17:51:19.838
32, -511.73, -58.96, 291.09, -3397.89, 0.000, 0.000, 0.000, 17:51:19.838
33, -446.24, -4.94, 298.54, -3426.15, 0.000, 0.000, 0.000, 17:51:19.838
34, -435.03, -5.93, 291.97, -3462.21, 0.000, 0.000, 0.000, 17:51:19.838
35, -494.76, -45.55, 263.10, -3339.32, 0.000, 0.000, 0.000, 17:51:19.839
36, -500.12, -41.96, 293.53, -3281.61, 0.000, 0.000, 0.000, 17:51:19.839
37, -454.87, -15.59, 282.92, -3449.89, 0.000, 0.000, 0.000, 17:51:19.853
38, -456.80, -17.48, 280.26, -3576.83, 0.000, 0.000, 0.000, 17:51:19.853
39, -490.44, -37.07, 281.90, -3313.65, 0.000, 0.000, 0.000, 17:51:19.868
40, -504.34, -42.29, 286.51, -3280.50, 0.000, 0.000, 0.000, 17:51:19.868
41, -461.97, -16.74, 288.95, -3481.34, 0.000, 0.000, 0.000, 17:51:19.869
42, -446.08, -24.26, 280.72, -3469.59, 0.000, 0.000, 0.000, 17:51:19.869
43, -503.19, -58.91, 263.94, -3351.08, 0.000, 0.000, 0.000, 17:51:19.883
44, -520.37, -54.37, 290.51, -3329.74, 0.000, 0.000, 0.000, 17:51:19.883
45, -451.46, -15.21, 285.65, -3372.65, 0.000, 0.000, 0.000, 17:51:19.898
46, -435.46, -10.57, 275.52, -3411.57, 0.000, 0.000, 0.000, 17:51:19.898
47, -493.63, -43.04, 277.64, -3338.98, 0.000, 0.000, 0.000, 17:51:19.898
48, -509.49, -54.03, 287.90, -3273.84, 0.000, 0.000, 0.000, 17:51:19.899
49, -452.10, -10.12, 295.12, -3424.00, 0.000, 0.000, 0.000, 17:51:19.913
50, -450.75, -17.15, 277.16, -3498.53, 0.000, 0.000, 0.000, 17:51:19.913
51, -505.59, -60.55, 270.87, -3305.03, 0.000, 0.000, 0.000, 17:51:19.928
52, -512.11, -53.80, 289.32, -3305.39, 0.000, 0.000, 0.000, 17:51:19.928
53, -462.48, -17.66, 295.87, -3476.28, 0.000, 0.000, 0.000, 17:51:19.929
54, -440.22, -14.08, 274.18, -3445.31, 0.000, 0.000, 0.000, 17:51:19.929
55, -493.30, -49.66, 276.53, -3327.44, 0.000, 0.000, 0.000, 17:51:19.958
56, -515.07, -57.67, 289.52, -3360.11, 0.000, 0.000, 0.000, 17:51:19.958
57, -452.22, -8.20, 290.95, -3415.95, 0.000, 0.000, 0.000, 17:51:19.958
58, -446.93, -18.02, 267.81, -3450.24, 0.000, 0.000, 0.000, 17:51:19.958
59, -494.86, -46.24, 273.41, -3339.60, 0.000, 0.000, 0.000, 17:51:19.959
60, -505.00, -44.71, 289.57, -3266.66, 0.000, 0.000, 0.000, 17:51:19.959
61, -454.99, -22.01, 283.31, -3440.36, 0.000, 0.000, 0.000, 17:51:19.973
62, -452.66, -23.59, 281.57, -3549.86, 0.000, 0.000, 0.000, 17:51:19.973
63, -488.16, -44.48, 267.69, -3320.82, 0.000, 0.000, 0.000, 17:51:19.988
64, -499.41, -42.40, 292.14, -3301.29, 0.000, 0.000, 0.000, 17:51:19.988
65, -456.59, -14.01, 299.01, -3477.91, 0.000, 0.000, 0.000, 17:51:19.988
66, -438.53, -9.49, 274.53, -3436.69, 0.000, 0.000, 0.000, 17:51:19.988
67, -492.62, -42.29, 267.65, -3313.53, 0.000, 0.000, 0.000, 17:51:20.003
68, -516.01, -43.45, 285.02, -3348.72, 0.000, 0.000, 0.000, 17:51:20.003
69, -447.72, -0.29, 299.99, -3426.22, 0.000, 0.000, 0.000, 17:51:20.018
70, -438.82, -6.83, 281.27, -3455.94, 0.000, 0.000, 0.000, 17:51:20.018
71, -491.32, -40.18, 272.48, -3347.89, 0.000, 0.000, 0.000, 17:51:20.018
72, -506.39, -46.68, 287.73, -3276.49, 0.000, 0.000, 0.000, 17:51:20.019
73, -447.16, -19.36, 296.14, -3420.33, 0.000, 0.000, 0.000, 17:51:20.033
74, -449.82, -19.35, 270.29, -3511.95, 0.000, 0.000, 0.000, 17:51:20.033
75, -501.48, -53.45, 262.92, -3319.93, 0.000, 0.000, 0.000, 17:51:20.048
76, -509.46, -47.59, 282.20, -3285.70, 0.000, 0.000, 0.000, 17:51:20.048
77, -453.42, -7.73, 303.83, -3430.42, 0.000, 0.000, 0.000, 17:51:20.048
78, -432.57, 1.31, 284.92, -3411.70, 0.000, 0.000, 0.000, 17:51:20.048
79, -484.76, -37.95, 272.62, -3336.15, 0.000, 0.000, 0.000, 17:51:20.063
80, -510.27, -52.33, 288.56, -3383.53, 0.000, 0.000, 0.000, 17:51:20.064
81, -445.15, -5.13, 294.55, -3387.06, 0.000, 0.000, 0.000, 17:51:20.078
82, -442.01, -10.67, 276.53, -3448.47, 0.000, 0.000, 0.000, 17:51:20.078
83, -491.87, -42.66, 280.74, -3338.94, 0.000, 0.000, 0.000, 17:51:20.079
84, -493.83, -40.22, 293.14, -3264.38, 0.000, 0.000, 0.000, 17:51:20.079
85, -448.15, -10.22, 297.77, -3428.71, 0.000, 0.000, 0.000, 17:51:20.093
86, -444.03, -16.54, 281.06, -3508.27, 0.000, 0.000, 0.000, 17:51:20.093
87, -482.12, -42.13, 277.37, -3276.48, 0.000, 0.000, 0.000, 17:51:20.108
88, -497.13, -41.85, 283.63, -3257.96, 0.000, 0.000, 0.000, 17:51:20.108
89, -446.79, -12.18, 294.57, -3425.49, 0.000, 0.000, 0.000, 17:51:20.109
90, -442.83, -7.03, 271.70, -3443.33, 0.000, 0.000, 0.000, 17:51:20.109
91, -489.26, -39.70, 261.34, -3311.77, 0.000, 0.000, 0.000, 17:51:20.123
92, -517.60, -55.28, 288.51, -3324.12, 0.000, 0.000, 0.000, 17:51:20.123
93, -459.17, -15.98, 283.72, -3384.38, 0.000, 0.000, 0.000, 17:51:20.153
94, -441.92, -12.84, 260.62, -3453.40, 0.000, 0.000, 0.000, 17:51:20.153
95, -496.17, -45.65, 274.14, -3351.29, 0.000, 0.000, 0.000, 17:51:20.153
96, -502.41, -47.20, 291.53, -3294.60, 0.000, 0.000, 0.000, 17:51:20.153
97, -461.54, -23.04, 294.57, -3429.22, 0.000, 0.000, 0.000, 17:51:20.154
98, -443.43, -13.44, 283.83, -3427.64, 0.000, 0.000, 0.000, 17:51:20.154
99, -498.74, -49.68, 267.03, -3294.83, 0.000, 0.000, 0.000, 17:51:20.155
100, -516.12, -48.16, 285.18, -3322.37, 0.000, 0.000, 0.000, 17:51:20.155
101, -476.64, -22.54, 305.13, -3574.71, 0.000, 0.000, 0.000, 17:51:20.168
102, -425.92, -4.78, 284.15, -3381.66, 0.000, 0.000, 0.000, 17:51:20.168
103, -499.50, -53.51, 262.21, -3320.47, 0.000, 0.000, 0.000, 17:51:20.183
104, -516.70, -53.24, 269.30, -3311.34, 0.000, 0.000, 0.000, 17:51:20.183
105, -463.60, -17.34, 282.25, -3415.65, 0.000, 0.000, 0.000, 17:51:20.198
106, -440.03, -9.92, 267.16, -3462.55, 0.000, 0.000, 0.000, 17:51:20.198
107, -492.46, -41.77, 266.16, -3366.79, 0.000, 0.000, 0.000, 17:51:20.199
108, -502.93, -44.31, 289.44, -3293.91, 0.000, 0.000, 0.000, 17:51:20.199
109, -452.05, -10.27, 305.65, -3430.49, 0.000, 0.000, 0.000, 17:51:20.213
110, -449.80, -16.33, 273.82, -3490.13, 0.000, 0.000, 0.000, 17:51:20.213
111, -494.79, -45.77, 268.10, -3322.08, 0.000, 0.000, 0.000, 17:51:20.228
112, -504.34, -46.82, 288.48, -3293.15, 0.000, 0.000, 0.000, 17:51:20.228
113, -454.22, -20.25, 293.25, -3457.36, 0.000, 0.000, 0.000, 17:51:20.228
114, -430.80, -12.75, 271.64, -3396.00, 0.000, 0.000, 0.000, 17:51:20.228
115, -494.15, -55.77, 265.20, -3312.26, 0.000, 0.000, 0.000, 17:51:20.243
116, -516.09, -53.45, 287.57, -3362.77, 0.000, 0.000, 0.000, 17:51:20.243
117, -454.06, -17.57, 289.18, -3422.71, 0.000, 0.000, 0.000, 17:51:20.258
118, -444.74, -25.53, 267.38, -3462.80, 0.000, 0.000, 0.000, 17:51:20.258
119, -514.42, -67.48, 267.67, -3380.82, 0.000, 0.000, 0.000, 17:51:20.258
120, -515.66, -65.33, 281.84, -3297.86, 0.000, 0.000, 0.000, 17:51:20.259
121, -452.61, -23.39, 293.06, -3398.77, 0.000, 0.000, 0.000, 17:51:20.273
122, -441.13, -13.67, 286.09, -3480.98, 0.000, 0.000, 0.000, 17:51:20.273
123, -489.89, -46.28, 271.24, -3320.95, 0.000, 0.000, 0.000, 17:51:20.288
124, -508.21, -48.41, 286.81, -3309.36, 0.000, 0.000, 0.000, 17:51:20.288
125, -458.22, -15.09, 301.04, -3454.44, 0.000, 0.000, 0.000, 17:51:20.289
126, -439.32, -5.45, 272.30, -3450.19, 0.000, 0.000, 0.000, 17:51:20.289
127, -500.52, -51.10, 267.55, -3366.93, 0.000, 0.000, 0.000, 17:51:20.303
128, -526.48, -59.92, 287.32, -3348.27, 0.000, 0.000, 0.000, 17:51:20.303
129, -463.92, -20.89, 292.44, -3409.66, 0.000, 0.000, 0.000, 17:51:20.318
130, -449.62, -17.00, 268.05, -3460.42, 0.000, 0.000, 0.000, 17:51:20.318
131, -505.97, -47.89, 260.94, -3351.57, 0.000, 0.000, 0.000, 17:51:20.318
132, -512.46, -55.14, 278.52, -3296.57, 0.000, 0.000, 0.000, 17:51:20.319
133, -454.28, -16.05, 291.04, -3442.08, 0.000, 0.000, 0.000, 17:51:20.333
134, -456.96, -16.65, 268.59, -3518.78, 0.000, 0.000, 0.000, 17:51:20.333
135, -490.13, -44.22, 272.61, -3289.98, 0.000, 0.000, 0.000, 17:51:20.348
136, -510.03, -45.78, 287.05, -3314.36, 0.000, 0.000, 0.000, 17:51:20.348
137, -463.43, -15.00, 287.64, -3472.35, 0.000, 0.000, 0.000, 17:51:20.349
138, -439.62, -12.06, 276.06, -3462.77, 0.000, 0.000, 0.000, 17:51:20.349
139, -497.93, -45.29, 265.18, -3362.59, 0.000, 0.000, 0.000, 17:51:20.363
140, -518.23, -49.42, 289.15, -3375.63, 0.000, 0.000, 0.000, 17:51:20.363
141, -456.00, -12.97, 292.82, -3430.25, 0.000, 0.000, 0.000, 17:51:20.378
142, -441.15, -10.53, 276.40, -3440.04, 0.000, 0.000, 0.000, 17:51:20.378
143, -493.86, -46.29, 263.85, -3327.28, 0.000, 0.000, 0.000, 17:51:20.379
144, -506.27, -50.37, 283.13, -3281.73, 0.000, 0.000, 0.000, 17:51:20.379
145, -457.57, -16.22, 290.23, -3442.86, 0.000, 0.000, 0.000, 17:51:20.393
146, -447.79, -17.59, 275.51, -3522.57, 0.000, 0.000, 0.000, 17:51:20.393
147, -493.36, -46.99, 269.44, -3321.07, 0.000, 0.000, 0.000, 17:51:20.408
148, -515.39, -59.80, 288.45, -3321.92, 0.000, 0.000, 0.000, 17:51:20.408
149, -465.06, -25.69, 303.52, -3449.82, 0.000, 0.000, 0.000, 17:51:20.408
150, -440.74, -5.92, 285.23, -3435.30, 0.000, 0.000, 0.000, 17:51:20.409
151, -498.04, -49.33, 264.53, -3319.63, 0.000, 0.000, 0.000, 17:51:20.423
152, -520.83, -51.30, 285.58, -3358.02, 0.000, 0.000, 0.000, 17:51:20.423
153, -455.99, -7.07, 293.16, -3399.48, 0.000, 0.000, 0.000, 17:51:20.438
154, -442.31, -11.97, 278.85, -3461.55, 0.000, 0.000, 0.000, 17:51:20.438
155, -499.25, -49.15, 256.55, -3369.80, 0.000, 0.000, 0.000, 17:51:20.439
156, -518.38, -58.74, 269.18, -3298.70, 0.000, 0.000, 0.000, 17:51:20.439
157, -461.13, -20.46, 278.45, -3442.96, 0.000, 0.000, 0.000, 17:51:20.453
158, -448.69, -13.68, 274.25, -3537.49, 0.000, 0.000, 0.000, 17:51:20.453
159, -489.77, -41.18, 261.69, -3337.27, 0.000, 0.000, 0.000, 17:51:20.468
160, -515.35, -48.66, 280.14, -3314.00, 0.000, 0.000, 0.000, 17:51:20.468
161, -458.74, -20.63, 290.84, -3484.77, 0.000, 0.000, 0.000, 17:51:20.469
162, -438.62, -11.94, 269.00, -3437.12, 0.000, 0.000, 0.000, 17:51:20.469
163, -492.48, -44.41, 266.63, -3315.24, 0.000, 0.000, 0.000, 17:51:20.483
164, -528.93, -62.81, 283.39, -3384.66, 0.000, 0.000, 0.000, 17:51:20.483
165, -468.09, -26.97, 288.64, -3437.15, 0.000, 0.000, 0.000, 17:51:20.498
166, -440.63, -7.15, 275.50, -3484.92, 0.000, 0.000, 0.000, 17:51:20.498
167, -494.63, -44.21, 274.57, -3383.11, 0.000, 0.000, 0.000, 17:51:20.499
168, -508.69, -51.45, 288.66, -3300.49, 0.000, 0.000, 0.000, 17:51:20.499
169, -451.43, -22.90, 296.04, -3445.25, 0.000, 0.000, 0.000, 17:51:20.513
170, -444.48, -17.35, 279.29, -3539.62, 0.000, 0.000, 0.000, 17:51:20.513
171, -491.24, -49.61, 253.27, -3299.02, 0.000, 0.000, 0.000, 17:51:20.528
172, -516.26, -57.65, 275.39, -3275.04, 0.000, 0.000, 0.000, 17:51:20.528
173, -460.26, -15.81, 293.87, -3444.72, 0.000, 0.000, 0.000, 17:51:20.528
174, -432.24, -3.11, 288.18, -3426.63, 0.000, 0.000, 0.000, 17:51:20.528
175, -489.58, -45.51, 270.07, -3316.94, 0.000, 0.000, 0.000, 17:51:20.543
176, -516.98, -53.68, 290.61, -3321.19, 0.000, 0.000, 0.000, 17:51:20.543
177, -453.39, -8.21, 293.21, -3352.58, 0.000, 0.000, 0.000, 17:51:20.558
178, -440.46, -14.35, 267.80, -3449.30, 0.000, 0.000, 0.000, 17:51:20.558
179, -490.39, -43.63, 268.92, -3288.54, 0.000, 0.000, 0.000, 17:51:20.559
180, -509.97, -50.76, 279.80, -3234.16, 0.000, 0.000, 0.000, 17:51:20.559
181, -451.16, -6.89, 300.41, -3418.12, 0.000, 0.000, 0.000, 17:51:20.573
182, -447.16, -7.37, 280.70, -3494.80, 0.000, 0.000, 0.000, 17:51:20.573
183, -490.11, -44.86, 269.86, -3288.31, 0.000, 0.000, 0.000, 17:51:20.588
184, -508.23, -45.29, 288.79, -3263.98, 0.000, 0.000, 0.000, 17:51:20.588
185, -458.27, -9.28, 288.86, -3435.79, 0.000, 0.000, 0.000, 17:51:20.589
186, -433.16, -4.97, 268.61, -3443.32, 0.000, 0.000, 0.000, 17:51:20.589
187, -488.72, -37.71, 259.26, -3311.12, 0.000, 0.000, 0.000, 17:51:20.603
188, -510.90, -46.34, 283.38, -3367.07, 0.000, 0.000, 0.000, 17:51:20.603
189, -455.16, -20.81, 289.31, -3410.83, 0.000, 0.000, 0.000, 17:51:20.618
190, -439.76, -9.19, 268.90, -3469.68, 0.000, 0.000, 0.000, 17:51:20.618
191, -501.12, -51.15, 258.12, -3367.74, 0.000, 0.000, 0.000, 17:51:20.619
192, -506.77, -46.91, 289.36, -3286.74, 0.000, 0.000, 0.000, 17:51:20.619
193, -463.12, -20.04, 291.84, -3393.69, 0.000, 0.000, 0.000, 17:51:20.633
194, -445.52, -18.85, 278.77, -3456.69, 0.000, 0.000, 0.000, 17:51:20.633
195, -486.63, -44.17, 266.80, -3302.15, 0.000, 0.000, 0.000, 17:51:20.648
196, -507.34, -47.87, 287.40, -3295.11, 0.000, 0.000, 0.000, 17:51:20.648
197, -462.66, -28.30, 296.99, -3431.10, 0.000, 0.000, 0.000, 17:51:20.648
198, -440.52, -10.26, 276.75, -3449.20, 0.000, 0.000, 0.000, 17:51:20.649
199, -500.85, -56.49, 265.12, -3356.66, 0.000, 0.000, 0.000, 17:51:20.663
200, -522.61, -56.06, 286.55, -3324.18, 0.000, 0.000, 0.000, 17:51:20.663
0, -460.91, -14.37, 294.41, -3403.30, 0.000, 0.000, 0.000, 17:51:20.664
1, -449.17, -18.12, 269.45, -3461.05, 0.000, 0.000, 0.000, 17:51:20.678
2, -511.69, -60.83, 265.23, -3393.97, 0.000, 0.000, 0.000, 17:51:20.678
3, -515.42, -59.24, 288.16, -3235.75, 0.000, 0.000, 0.000, 17:51:20.693
4, -458.32, -15.92, 302.76, -3378.33, 0.000, 0.000, 0.000, 17:51:20.693
5, -445.38, -19.93, 264.95, -3481.05, 0.000, 0.000, 0.000, 17:51:20.693
6, -496.77, -50.45, 261.89, -3320.25, 0.000, 0.000, 0.000, 17:51:20.693
7, -517.71, -55.99, 276.10, -3276.42, 0.000, 0.000, 0.000, 17:51:20.708
8, -475.12, -31.53, 280.76, -3512.35, 0.000, 0.000, 0.000, 17:51:20.708
9, -449.91, -15.31, 270.94, -3471.56, 0.000, 0.000, 0.000, 17:51:20.723
10, -505.17, -58.11, 258.02, -3381.82, 0.000, 0.000, 0.000, 17:51:20.723
11, -530.12, -64.59, 281.00, -3396.76, 0.000, 0.000, 0.000, 17:51:20.723
12, -470.99, -23.86, 291.26, -3421.23, 0.000, 0.000, 0.000, 17:51:20.723
13, -443.98, -17.79, 274.07, -3483.82, 0.000, 0.000, 0.000, 17:51:20.738
14, -498.41, -53.08, 267.66, -3403.51, 0.000, 0.000, 0.000, 17:51:20.738
15, -508.09, -54.05, 296.24, -3293.97, 0.000, 0.000, 0.000, 17:51:20.753
16, -464.34, -26.09, 297.65, -3441.71, 0.000, 0.000, 0.000, 17:51:20.753
17, -446.79, -21.18, 275.45, -3507.55, 0.000, 0.000, 0.000, 17:51:20.753
18, -489.54, -50.21, 276.93, -3304.63, 0.000, 0.000, 0.000, 17:51:20.753
19, -509.61, -51.55, 287.80, -3270.58, 0.000, 0.000, 0.000, 17:51:20.768
20, -461.73, -10.27, 290.87, -3466.49, 0.000, 0.000, 0.000, 17:51:20.768
21, -436.87, -3.29, 272.71, -3447.03, 0.000, 0.000, 0.000, 17:51:20.798
22, -494.08, -49.12, 262.49, -3347.63, 0.000, 0.000, 0.000, 17:51:20.798
23, -510.06, -50.35, 281.85, -3344.60, 0.000, 0.000, 0.000, 17:51:20.799
24, -458.09, -18.75, 284.73, -3427.67, 0.000, 0.000, 0.000, 17:51:20.799
25, -438.71, -10.25, 269.80, -3464.42, 0.000, 0.000, 0.000, 17:51:20.799
26, -491.21, -40.28, 269.91, -3301.82, 0.000, 0.000, 0.000, 17:51:20.799
27, -509.97, -49.24, 280.23, -3262.40, 0.000, 0.000, 0.000, 17:51:20.800
28, -456.93, -19.43, 291.39, -3388.03, 0.000, 0.000, 0.000, 17:51:20.800
29, -462.88, -23.36, 285.58, -3615.44, 0.000, 0.000, 0.000, 17:51:20.813
30, -488.79, -43.80, 262.04, -3281.34, 0.000, 0.000, 0.000, 17:51:20.813
31, -513.99, -56.49, 276.58, -3270.10, 0.000, 0.000, 0.000, 17:51:20.828
32, -466.87, -23.46, 299.00, -3441.33, 0.000, 0.000, 0.000, 17:51:20.828
33, -444.82, -21.82, 274.73, -3420.79, 0.000, 0.000, 0.000, 17:51:20.843
34, -497.89, -51.22, 271.70, -3331.01, 0.000, 0.000, 0.000, 17:51:20.843
35, -516.80, -59.85, 282.05, -3280.61, 0.000, 0.000, 0.000, 17:51:20.844
36, -460.58, -23.31, 287.24, -3374.83, 0.000, 0.000, 0.000, 17:51:20.844
37, -442.18, -14.52, 272.27, -3464.10, 0.000, 0.000, 0.000, 17:51:20.858
38, -498.44, -44.34, 272.23, -3380.70, 0.000, 0.000, 0.000, 17:51:20.858
39, -515.42, -58.04, 273.61, -3273.66, 0.000, 0.000, 0.000, 17:51:20.873
40, -462.50, -21.22, 287.18, -3389.40, 0.000, 0.000, 0.000, 17:51:20.873
41, -442.48, -14.09, 270.61, -3460.32, 0.000, 0.000, 0.000, 17:51:20.873
42, -496.41, -47.75, 261.40, -3321.06, 0.000, 0.000, 0.000, 17:51:20.874
43, -508.14, -55.48, 288.92, -3281.60, 0.000, 0.000, 0.000, 17:51:20.888
44, -472.64, -26.38, 295.19, -3462.74, 0.000, 0.000, 0.000, 17:51:20.888
45, -443.75, -21.75, 280.41, -3421.61, 0.000, 0.000, 0.000, 17:51:20.903
46, -489.35, -45.06, 274.76, -3322.19, 0.000, 0.000, 0.000, 17:51:20.903
47, -516.44, -52.13, 287.86, -3330.19, 0.000, 0.000, 0.000, 17:51:20.904
48, -468.47, -21.71, 292.90, -3385.63, 0.000, 0.000, 0.000, 17:51:20.904
49, -451.19, -15.81, 270.66, -3489.76, 0.000, 0.000, 0.000, 17:51:20.918
50, -513.12, -61.93, 261.74, -3436.98, 0.000, 0.000, 0.000, 17:51:20.918
51, -526.48, -56.89, 283.13, -3315.16, 0.000, 0.000, 0.000, 17:51:20.933
52, -462.23, -22.37, 285.49, -3432.04, 0.000, 0.000, 0.000, 17:51:20.933
53, -440.05, -15.87, 275.99, -3505.88, 0.000, 0.000, 0.000, 17:51:20.933
54, -498.55, -51.07, 268.63, -3323.67, 0.000, 0.000, 0.000, 17:51:20.933
55, -507.25, -55.20, 293.30, -3321.76, 0.000, 0.000, 0.000, 17:51:20.948
56, -465.34, -27.62, 303.21, -3478.93, 0.000, 0.000, 0.000, 17:51:20.948
57, -439.56, -10.32, 281.31, -3430.90, 0.000, 0.000, 0.000, 17:51:20.963
58, -491.57, -48.00, 267.70, -3331.55, 0.000, 0.000, 0.000, 17:51:20.963
59, -524.33, -59.99, 290.57, -3295.52, 0.000, 0.000, 0.000, 17:51:20.963
60, -459.60, -21.76, 297.16, -3393.46, 0.000, 0.000, 0.000, 17:51:20.963
61, -441.50, -23.07, 278.45, -3455.42, 0.000, 0.000, 0.000, 17:51:20.978
62, -501.57, -55.85, 265.99, -3393.19, 0.000, 0.000, 0.000, 17:51:20.978
63, -508.80, -52.12, 284.41, -3254.48, 0.000, 0.000, 0.000, 17:51:20.993
64, -452.98, -15.38, 287.76, -3379.47, 0.000, 0.000, 0.000, 17:51:20.993
65, -424.69, 7.64, 283.63, -3455.45, 0.000, 0.000, 0.000, 17:51:20.994
66, -488.68, -43.60, 263.92, -3322.23, 0.000, 0.000, 0.000, 17:51:20.994
67, -510.82, -51.91, 275.08, -3286.09, 0.000, 0.000, 0.000, 17:51:21.008
68, -473.02, -20.09, 290.41, -3457.72, 0.000, 0.000, 0.000, 17:51:21.008
69, -430.51, -1.29, 271.37, -3420.58, 0.000, 0.000, 0.000, 17:51:21.023
70, -486.75, -41.37, 270.91, -3315.30, 0.000, 0.000, 0.000, 17:51:21.023
71, -512.63, -54.84, 287.55, -3323.78, 0.000, 0.000, 0.000, 17:51:21.023
72, -462.91, -25.68, 295.24, -3408.73, 0.000, 0.000, 0.000, 17:51:21.023
73, -444.18, -15.66, 271.25, -3465.50, 0.000, 0.000, 0.000, 17:51:21.038
74, -508.68, -57.51, 266.24, -3408.47, 0.000, 0.000, 0.000, 17:51:21.038
75, -513.03, -58.04, 282.59, -3257.33, 0.000, 0.000, 0.000, 17:51:21.053
76, -454.12, -10.09, 308.82, -3415.02, 0.000, 0.000, 0.000, 17:51:21.053
77, -442.51, -13.88, 280.21, -3491.13, 0.000, 0.000, 0.000, 17:51:21.054
78, -485.74, -43.15, 268.26, -3315.25, 0.000, 0.000, 0.000, 17:51:21.054
79, -515.46, -55.72, 280.31, -3277.16, 0.000, 0.000, 0.000, 17:51:21.068
80, -459.02, -17.13, 301.79, -3431.69, 0.000, 0.000, 0.000, 17:51:21.068
81, -430.40, -1.61, 271.92, -3420.19, 0.000, 0.000, 0.000, 17:51:21.083
82, -484.32, -41.27, 268.78, -3320.20, 0.000, 0.000, 0.000, 17:51:21.083
83, -513.11, -55.39, 278.83, -3300.64, 0.000, 0.000, 0.000, 17:51:21.084
84, -456.69, -14.58, 288.04, -3364.38, 0.000, 0.000, 0.000, 17:51:21.084
85, -438.78, -15.55, 279.90, -3436.64, 0.000, 0.000, 0.000, 17:51:21.113
86, -493.45, -49.53, 276.76, -3368.02, 0.000, 0.000, 0.000, 17:51:21.113
87, -514.27, -60.34, 285.20, -3278.52, 0.000, 0.000, 0.000, 17:51:21.113
88, -465.17, -27.95, 296.57, -3439.57, 0.000, 0.000, 0.000, 17:51:21.113
89, -444.62, -22.75, 270.60, -3484.20, 0.000, 0.000, 0.000, 17:51:21.114
90, -500.22, -58.54, 256.63, -3359.79, 0.000, 0.000, 0.000, 17:51:21.114
91, -522.61, -57.20, 283.77, -3304.32, 0.000, 0.000, 0.000, 17:51:21.128
92, -483.35, -33.08, 303.82, -3538.11, 0.000, 0.000, 0.000, 17:51:21.128
93, -446.79, -16.88, 267.29, -3482.82, 0.000, 0.000, 0.000, 17:51:21.143
94, -493.97, -51.08, 269.05, -3360.93, 0.000, 0.000, 0.000, 17:51:21.143
95, -526.81, -64.65, 286.01, -3333.87, 0.000, 0.000, 0.000, 17:51:21.144
96, -464.45, -23.93, 292.63, -3380.17, 0.000, 0.000, 0.000, 17:51:21.144
97, -433.86, -2.29, 282.72, -3450.63, 0.000, 0.000, 0.000, 17:51:21.158
98, -495.19, -49.47, 273.92, -3386.06, 0.000, 0.000, 0.000, 17:51:21.158
99, -506.29, -51.85, 290.73, -3241.90, 0.000, 0.000, 0.000, 17:51:21.173
100, -459.30, -24.52, 302.76, -3406.59, 0.000, 0.000, 0.000, 17:51:21.173
101, -438.00, -11.00, 285.26, -3483.54, 0.000, 0.000, 0.000, 17:51:21.174
102, -487.38, -47.64, 261.45, -3311.18, 0.000, 0.000, 0.000, 17:51:21.174
103, -516.81, -57.27, 278.81, -3302.41, 0.000, 0.000, 0.000, 17:51:21.188
104, -468.18, -11.37, 299.25, -3486.14, 0.000, 0.000, 0.000, 17:51:21.188
105, -443.32, -15.39, 268.66, -3472.21, 0.000, 0.000, 0.000, 17:51:21.203
106, -486.19, -41.43, 268.76, -3361.64, 0.000, 0.000, 0.000, 17:51:21.203
107, -517.33, -50.66, 283.99, -3320.98, 0.000, 0.000, 0.000, 17:51:21.203
108, -456.97, -14.63, 292.21, -3403.23, 0.000, 0.000, 0.000, 17:51:21.204
109, -436.79, -3.16, 280.32, -3480.97, 0.000, 0.000, 0.000, 17:51:21.218
110, -497.69, -48.41, 270.95, -3409.62, 0.000, 0.000, 0.000, 17:51:21.218
111, -508.55, -54.93, 282.43, -3256.12, 0.000, 0.000, 0.000, 17:51:21.233
112, -462.56, -16.89, 289.72, -3385.32, 0.000, 0.000, 0.000, 17:51:21.233
113, -441.86, -14.21, 266.39, -3471.29, 0.000, 0.000, 0.000, 17:51:21.233
114, -490.79, -46.41, 267.69, -3335.36, 0.000, 0.000, 0.000, 17:51:21.234
115, -514.14, -49.17, 280.66, -3297.31, 0.000, 0.000, 0.000, 17:51:21.248
116, -468.49, -19.89, 294.77, -3460.54, 0.000, 0.000, 0.000, 17:51:21.248
117, -429.99, -5.22, 279.47, -3429.65, 0.000, 0.000, 0.000, 17:51:21.263
118, -484.97, -38.77, 267.74, -3317.82, 0.000, 0.000, 0.000, 17:51:21.263
119, -520.44, -59.02, 274.62, -3302.63, 0.000, 0.000, 0.000, 17:51:21.264
120, -464.55, -26.40, 292.04, -3395.71, 0.000, 0.000, 0.000, 17:51:21.264
121, -440.43, -12.71, 266.35, -3468.44, 0.000, 0.000, 0.000, 17:51:21.278
122, -496.04, -47.51, 265.49, -3340.64, 0.000, 0.000, 0.000, 17:51:21.278
123, -516.07, -60.36, 270.29, -3252.80, 0.000, 0.000, 0.000, 17:51:21.293
124, -468.18, -22.88, 289.13, -3404.06, 0.000, 0.000, 0.000, 17:51:21.293
125, -454.85, -19.31, 275.61, -3510.99, 0.000, 0.000, 0.000, 17:51:21.293
126, -487.09, -41.77, 270.61, -3332.24, 0.000, 0.000, 0.000, 17:51:21.294
127, -519.69, -57.27, 280.85, -3307.57, 0.000, 0.000, 0.000, 17:51:21.308
128, -479.35, -30.77, 291.28, -3491.65, 0.000, 0.000, 0.000, 17:51:21.308
129, -444.14, -16.41, 274.01, -3478.82, 0.000, 0.000, 0.000, 17:51:21.323
130, -491.09, -45.14, 266.93, -3343.82, 0.000, 0.000, 0.000, 17:51:21.323
131, -507.07, -46.83, 278.67, -3270.84, 0.000, 0.000, 0.000, 17:51:21.324
132, -460.55, -16.00, 294.26, -3353.84, 0.000, 0.000, 0.000, 17:51:21.324
133, -440.75, -13.70, 265.80, -3446.26, 0.000, 0.000, 0.000, 17:51:21.338
134, -489.67, -45.30, 271.07, -3410.37, 0.000, 0.000, 0.000, 17:51:21.338
135, -517.26, -61.10, 285.61, -3270.00, 0.000, 0.000, 0.000, 17:51:21.353
136, -465.89, -24.94, 299.19, -3419.25, 0.000, 0.000, 0.000, 17:51:21.353
137, -447.40, -18.51, 267.56, -3490.65, 0.000, 0.000, 0.000, 17:51:21.353
138, -484.62, -39.26, 266.82, -3329.17, 0.000, 0.000, 0.000, 17:51:21.353
139, -513.68, -53.87, 286.47, -3301.37, 0.000, 0.000, 0.000, 17:51:21.368
140, -470.39, -21.14, 297.60, -3466.21, 0.000, 0.000, 0.000, 17:51:21.368
141, -439.89, -11.63, 272.92, -3437.18, 0.000, 0.000, 0.000, 17:51:21.383
142, -482.33, -40.41, 266.13, -3341.77, 0.000, 0.000, 0.000, 17:51:21.383
143, -516.08, -54.92, 279.42, -3325.56, 0.000, 0.000, 0.000, 17:51:21.384
144, -469.07, -26.45, 286.62, -3425.67, 0.000, 0.000, 0.000, 17:51:21.384
145, -443.41, -14.06, 272.93, -3468.51, 0.000, 0.000, 0.000, 17:51:21.398
146, -503.10, -56.61, 261.10, -3422.98, 0.000, 0.000, 0.000, 17:51:21.398
147, -524.41, -62.83, 266.94, -3278.89, 0.000, 0.000, 0.000, 17:51:21.418
148, -470.96, -21.38, 281.50, -3437.84, 0.000, 0.000, 0.000, 17:51:21.418
149, -448.79, -11.02, 272.16, -3508.87, 0.000, 0.000, 0.000, 17:51:21.418
150, -495.76, -45.18, 260.43, -3388.82, 0.000, 0.000, 0.000, 17:51:21.418
151, -536.14, -63.72, 281.13, -3342.90, 0.000, 0.000, 0.000, 17:51:21.428
152, -488.10, -32.88, 287.00, -3512.14, 0.000, 0.000, 0.000, 17:51:21.428
153, -437.57, -5.46, 280.60, -3475.23, 0.000, 0.000, 0.000, 17:51:21.443
154, -487.47, -38.73, 274.33, -3348.38, 0.000, 0.000, 0.000, 17:51:21.443
155, -515.20, -49.60, 276.73, -3332.81, 0.000, 0.000, 0.000, 17:51:21.443
156, -461.35, -19.42, 292.22, -3391.89, 0.000, 0.000, 0.000, 17:51:21.444
157, -433.29, -12.36, 277.25, -3502.49, 0.000, 0.000, 0.000, 17:51:21.458
158, -489.95, -42.14, 268.17, -3429.65, 0.000, 0.000, 0.000, 17:51:21.458
159, -508.79, -50.47, 279.77, -3299.68, 0.000, 0.000, 0.000, 17:51:21.473
160, -458.62, -16.69, 293.48, -3405.54, 0.000, 0.000, 0.000, 17:51:21.473
161, -447.07, -16.75, 271.46, -3521.49, 0.000, 0.000, 0.000, 17:51:21.473
162, -487.73, -47.99, 259.09, -3336.82, 0.000, 0.000, 0.000, 17:51:21.473
163, -509.19, -51.38, 284.04, -3281.68, 0.000, 0.000, 0.000, 17:51:21.488
164, -475.69, -33.36, 296.72, -3463.34, 0.000, 0.000, 0.000, 17:51:21.488
165, -437.22, -16.51, 282.37, -3446.44, 0.000, 0.000, 0.000, 17:51:21.503
166, -482.15, -44.23, 274.08, -3350.45, 0.000, 0.000, 0.000, 17:51:21.503
167, -510.24, -49.31, 288.60, -3300.27, 0.000, 0.000, 0.000, 17:51:21.504
168, -462.20, -23.53, 292.52, -3370.18, 0.000, 0.000, 0.000, 17:51:21.504
169, -434.68, -7.80, 281.03, -3459.73, 0.000, 0.000, 0.000, 17:51:21.518
170, -493.37, -47.24, 273.95, -3410.50, 0.000, 0.000, 0.000, 17:51:21.518
171, -511.79, -56.68, 275.42, -3289.30, 0.000, 0.000, 0.000, 17:51:21.533
172, -464.88, -20.70, 290.38, -3452.92, 0.000, 0.000, 0.000, 17:51:21.533
173, -442.60, -9.35, 281.30, -3537.63, 0.000, 0.000, 0.000, 17:51:21.534
174, -480.21, -38.18, 267.46, -3349.14, 0.000, 0.000, 0.000, 17:51:21.534
175, -511.23, -57.72, 284.77, -3303.08, 0.000, 0.000, 0.000, 17:51:21.548
176, -476.47, -25.35, 300.26, -3487.49, 0.000, 0.000, 0.000, 17:51:21.548
177, -442.52, -12.56, 282.33, -3463.44, 0.000, 0.000, 0.000, 17:51:21.563
178, -490.39, -45.68, 273.02, -3371.01, 0.000, 0.000, 0.000, 17:51:21.563
179, -512.98, -48.89, 293.16, -3310.13, 0.000, 0.000, 0.000, 17:51:21.578
180, -459.03, -14.43, 302.01, -3360.77, 0.000, 0.000, 0.000, 17:51:21.578
181, -437.37, -8.64, 275.26, -3463.67, 0.000, 0.000, 0.000, 17:51:21.578
182, -491.93, -43.65, 273.66, -3399.43, 0.000, 0.000, 0.000, 17:51:21.579
183, -512.35, -48.25, 288.71, -3246.39, 0.000, 0.000, 0.000, 17:51:21.593
184, -465.59, -21.14, 302.07, -3400.39, 0.000, 0.000, 0.000, 17:51:21.593
185, -445.25, -11.00, 288.31, -3517.66, 0.000, 0.000, 0.000, 17:51:21.594
186, -493.34, -47.66, 266.34, -3313.96, 0.000, 0.000, 0.000, 17:51:21.594
187, -515.49, -52.89, 284.98, -3238.26, 0.000, 0.000, 0.000, 17:51:21.608
188, -471.56, -28.52, 298.54, -3401.42, 0.000, 0.000, 0.000, 17:51:21.608
189, -435.38, -9.04, 276.45, -3435.73, 0.000, 0.000, 0.000, 17:51:21.623
190, -483.58, -43.30, 267.10, -3332.15, 0.000, 0.000, 0.000, 17:51:21.623
191, -518.05, -58.90, 288.96, -3276.83, 0.000, 0.000, 0.000, 17:51:21.624
192, -465.83, -26.03, 293.89, -3352.13, 0.000, 0.000, 0.000, 17:51:21.624
193, -436.41, -12.52, 279.47, -3478.30, 0.000, 0.000, 0.000, 17:51:21.638
194, -501.47, -56.21, 268.09, -3418.26, 0.000, 0.000, 0.000, 17:51:21.638
195, -511.40, -55.93, 282.85, -3270.98, 0.000, 0.000, 0.000, 17:51:21.653
196, -466.32, -23.81, 287.31, -3382.29, 0.000, 0.000, 0.000, 17:51:21.653
197, -434.95, -1.42, 283.52, -3439.61, 0.000, 0.000, 0.000, 17:51:21.654
198, -479.98, -43.26, 264.06, -3326.93, 0.000, 0.000, 0.000, 17:51:21.654
199, -509.22, -54.92, 281.49, -3283.27, 0.000, 0.000, 0.000, 17:51:21.668
200, -469.33, -23.48, 296.54, -3472.37, 0.000, 0.000, 0.000, 17:51:21.668
0, -435.91, -7.87, 274.59, -3461.81, 0.000, 0.000, 0.000, 17:51:21.669
1, -484.64, -44.19, 263.36, -3352.49, 0.000, 0.000, 0.000, 17:51:21.683
2, -517.00, -56.06, 287.39, -3339.84, 0.000, 0.000, 0.000, 17:51:21.683
3, -467.98, -26.98, 292.73, -3384.55, 0.000, 0.000, 0.000, 17:51:21.698
4, -433.35, -1.49, 276.62, -3477.72, 0.000, 0.000, 0.000, 17:51:21.698
5, -491.77, -44.71, 267.70, -3385.92, 0.000, 0.000, 0.000, 17:51:21.699
6, -509.26, -52.03, 288.88, -3245.32, 0.000, 0.000, 0.000, 17:51:21.699
7, -459.84, -16.93, 297.97, -3386.51, 0.000, 0.000, 0.000, 17:51:21.713
8, -443.96, -12.67, 286.32, -3507.91, 0.000, 0.000, 0.000, 17:51:21.713
9, -481.68, -42.79, 270.26, -3308.93, 0.000, 0.000, 0.000, 17:51:21.728
10, -520.03, -59.46, 282.12, -3285.77, 0.000, 0.000, 0.000, 17:51:21.728
11, -473.10, -25.99, 297.00, -3406.49, 0.000, 0.000, 0.000, 17:51:21.728
12, -443.79, -13.41, 282.15, -3437.83, 0.000, 0.000, 0.000, 17:51:21.729
13, -490.50, -50.60, 258.28, -3348.25, 0.000, 0.000, 0.000, 17:51:21.758
14, -524.82, -63.10, 288.23, -3350.94, 0.000, 0.000, 0.000, 17:51:21.758
15, -476.65, -33.87, 284.72, -3403.40, 0.000, 0.000, 0.000, 17:51:21.758
16, -459.84, -23.70, 263.43, -3490.25, 0.000, 0.000, 0.000, 17:51:21.758
17, -494.16, -50.46, 262.43, -3372.17, 0.000, 0.000, 0.000, 17:51:21.759
18, -512.28, -49.99, 283.19, -3255.21, 0.000, 0.000, 0.000, 17:51:21.759
19, -470.04, -17.20, 289.55, -3424.35, 0.000, 0.000, 0.000, 17:51:21.773
20, -449.21, -11.05, 284.54, -3607.97, 0.000, 0.000, 0.000, 17:51:21.773
21, -484.55, -36.16, 262.45, -3377.09, 0.000, 0.000, 0.000, 17:51:21.788
22, -515.15, -50.48, 277.16, -3290.91, 0.000, 0.000, 0.000, 17:51:21.788
23, -471.91, -22.47, 293.47, -3427.94, 0.000, 0.000, 0.000, 17:51:21.788
24, -430.58, -3.73, 277.54, -3453.50, 0.000, 0.000, 0.000, 17:51:21.789
25, -474.58, -38.17, 261.35, -3334.76, 0.000, 0.000, 0.000, 17:51:21.803
26, -518.11, -58.25, 283.51, -3337.98, 0.000, 0.000, 0.000, 17:51:21.803
27, -458.48, -14.62, 300.61, -3383.82, 0.000, 0.000, 0.000, 17:51:21.818
28, -436.01, -8.64, 275.67, -3454.41, 0.000, 0.000, 0.000, 17:51:21.818
29, -485.53, -43.79, 259.62, -3373.59, 0.000, 0.000, 0.000, 17:51:21.818
30, -509.19, -51.17, 270.42, -3280.94, 0.000, 0.000, 0.000, 17:51:21.819
31, -463.84, -22.87, 282.99, -3406.75, 0.000, 0.000, 0.000, 17:51:21.833
32, -442.82, -17.61, 266.70, -3508.53, 0.000, 0.000, 0.000, 17:51:21.833
33, -477.08, -39.66, 247.89, -3328.45, 0.000, 0.000, 0.000, 17:51:21.848
34, -510.86, -51.43, 266.06, -3260.21, 0.000, 0.000, 0.000, 17:51:21.848
35, -467.69, -24.52, 287.69, -3398.70, 0.000, 0.000, 0.000, 17:51:21.849
36, -426.86, -6.37, 270.86, -3423.13, 0.000, 0.000, 0.000, 17:51:21.849
37, -472.21, -31.50, 262.51, -3372.26, 0.000, 0.000, 0.000, 17:51:21.863
38, -515.54, -56.85, 285.51, -3355.74, 0.000, 0.000, 0.000, 17:51:21.863
39, -462.15, -25.38, 299.19, -3360.91, 0.000, 0.000, 0.000, 17:51:21.878
40, -433.47, -6.14, 289.12, -3464.68, 0.000, 0.000, 0.000, 17:51:21.878
41, -492.08, -42.86, 270.31, -3376.01, 0.000, 0.000, 0.000, 17:51:21.878
42, -516.02, -56.20, 291.12, -3231.80, 0.000, 0.000, 0.000, 17:51:21.879
43, -463.51, -26.77, 304.14, -3352.74, 0.000, 0.000, 0.000, 17:51:21.893
44, -445.08, -9.88, 291.71, -3501.12, 0.000, 0.000, 0.000, 17:51:21.893
45, -484.50, -41.13, 266.80, -3338.41, 0.000, 0.000, 0.000, 17:51:21.908
46, -515.84, -58.46, 288.57, -3289.97, 0.000, 0.000, 0.000, 17:51:21.908
47, -482.52, -28.45, 291.24, -3432.68, 0.000, 0.000, 0.000, 17:51:21.909
48, -447.51, -12.38, 272.58, -3459.99, 0.000, 0.000, 0.000, 17:51:21.909
49, -492.59, -42.52, 259.59, -3381.91, 0.000, 0.000, 0.000, 17:51:21.923
50, -530.48, -60.73, 273.09, -3368.08, 0.000, 0.000, 0.000, 17:51:21.923
51, -458.95, -12.20, 289.50, -3370.05, 0.000, 0.000, 0.000, 17:51:21.938
52, -436.67, -6.69, 270.74, -3486.02, 0.000, 0.000, 0.000, 17:51:21.938
53, -489.19, -45.74, 263.05, -3373.53, 0.000, 0.000, 0.000, 17:51:21.939
54, -521.64, -55.52, 279.30, -3252.60, 0.000, 0.000, 0.000, 17:51:21.939
55, -471.70, -29.62, 291.71, -3423.83, 0.000, 0.000, 0.000, 17:51:21.953
56, -442.15, -15.47, 286.78, -3531.90, 0.000, 0.000, 0.000, 17:51:21.953
57, -480.23, -36.33, 285.48, -3324.70, 0.000, 0.000, 0.000, 17:51:21.968
58, -511.66, -49.30, 290.99, -3274.19, 0.000, 0.000, 0.000, 17:51:21.968
59, -472.04, -21.48, 302.36, -3419.83, 0.000, 0.000, 0.000, 17:51:21.969
60, -443.28, -15.27, 289.35, -3445.15, 0.000, 0.000, 0.000, 17:51:21.969
61, -491.53, -52.23, 273.00, -3368.95, 0.000, 0.000, 0.000, 17:51:21.983
62, -518.06, -57.41, 286.11, -3319.46, 0.000, 0.000, 0.000, 17:51:21.983
63, -465.71, -14.89, 292.52, -3376.19, 0.000, 0.000, 0.000, 17:51:21.998
64, -440.28, -11.58, 271.18, -3482.11, 0.000, 0.000, 0.000, 17:51:21.998
65, -484.66, -42.95, 259.59, -3398.82, 0.000, 0.000, 0.000, 17:51:21.999
66, -520.17, -58.98, 271.45, -3283.59, 0.000, 0.000, 0.000, 17:51:21.999
67, -467.75, -19.67, 297.91, -3377.65, 0.000, 0.000, 0.000, 17:51:22.013
68, -439.93, -8.11, 281.97, -3525.86, 0.000, 0.000, 0.000, 17:51:22.013
69, -479.75, -40.61, 268.49, -3345.03, 0.000, 0.000, 0.000, 17:51:22.028
70, -519.60, -57.23, 280.41, -3292.96, 0.000, 0.000, 0.000, 17:51:22.028
71, -478.33, -25.26, 298.59, -3446.74, 0.000, 0.000, 0.000, 17:51:22.029
72, -432.61, -3.46, 285.49, -3466.71, 0.000, 0.000, 0.000, 17:51:22.029
73, -485.38, -47.48, 276.25, -3347.83, 0.000, 0.000, 0.000, 17:51:22.043
74, -517.99, -52.43, 294.22, -3309.06, 0.000, 0.000, 0.000, 17:51:22.043
75, -474.74, -25.19, 303.38, -3352.82, 0.000, 0.000, 0.000, 17:51:22.073
76, -438.21, -9.97, 282.92, -3453.33, 0.000, 0.000, 0.000, 17:51:22.074
77, -482.59, -40.88, 269.85, -3349.16, 0.000, 0.000, 0.000, 17:51:22.074
78, -506.14, -55.02, 286.05, -3248.65, 0.000, 0.000, 0.000, 17:51:22.074
79, -461.30, -14.26, 301.19, -3397.77, 0.000, 0.000, 0.000, 17:51:22.074
80, -428.13, -0.00, 284.28, -3446.32, 0.000, 0.000, 0.000, 17:51:22.074
81, -477.93, -36.12, 265.85, -3327.08, 0.000, 0.000, 0.000, 17:51:22.075
82, -499.16, -39.10, 288.30, -3261.18, 0.000, 0.000, 0.000, 17:51:22.075
83, -473.00, -14.91, 308.36, -3562.72, 0.000, 0.000, 0.000, 17:51:22.088
84, -422.19, 8.60, 279.20, -3423.78, 0.000, 0.000, 0.000, 17:51:22.090
85, -464.95, -20.41, 266.96, -3337.66, 0.000, 0.000, 0.000, 17:51:22.103
86, -489.96, -28.12, 291.12, -3298.55, 0.000, 0.000, 0.000, 17:51:22.103
87, -434.56, 14.48, 299.60, -3353.92, 0.000, 0.000, 0.000, 17:51:22.118
88, -393.45, 32.34, 291.32, -3461.28, 0.000, 0.000, 0.000, 17:51:22.118
89, -443.96, 1.91, 283.42, -3361.53, 0.000, 0.000, 0.000, 17:51:22.119
90, -462.32, -5.84, 298.20, -3251.54, 0.000, 0.000, 0.000, 17:51:22.119
91, -413.12, 34.84, 289.10, -3369.97, 0.000, 0.000, 0.000, 17:51:22.133
92, -375.44, 52.30, 288.67, -3483.80, 0.000, 0.000, 0.000, 17:51:22.133
93, -403.17, 33.44, 273.15, -3327.89, 0.000, 0.000, 0.000, 17:51:22.148
94, -426.97, 21.50, 288.98, -3263.99, 0.000, 0.000, 0.000, 17:51:22.148
95, -387.20, 57.54, 289.49, -3378.67, 0.000, 0.000, 0.000, 17:51:22.149
96, -329.07, 92.08, 286.84, -3422.27, 0.000, 0.000, 0.000, 17:51:22.149
97, -377.44, 57.53, 267.29, -3341.98, 0.000, 0.000, 0.000, 17:51:22.163
98, -411.38, 33.03, 286.31, -3312.07, 0.000, 0.000, 0.000, 17:51:22.163
99, -360.84, 67.19, 304.23, -3328.81, 0.000, 0.000, 0.000, 17:51:22.178
100, -325.71, 95.25, 285.06, -3450.49, 0.000, 0.000, 0.000, 17:51:22.178
101, -379.61, 57.61, 268.22, -3361.61, 0.000, 0.000, 0.000, 17:51:22.178
102, -421.83, 37.30, 275.36, -3230.62, 0.000, 0.000, 0.000, 17:51:22.178
103, -393.29, 51.70, 294.42, -3375.82, 0.000, 0.000, 0.000, 17:51:22.193
104, -384.48, 47.88, 281.42, -3550.66, 0.000, 0.000, 0.000, 17:51:22.193
105, -444.23, -3.93, 268.09, -3333.08, 0.000, 0.000, 0.000, 17:51:22.208
106, -481.90, -29.83, 284.48, -3254.97, 0.000, 0.000, 0.000, 17:51:22.208
107, -455.52, -5.21, 294.07, -3429.88, 0.000, 0.000, 0.000, 17:51:22.209
108, -436.46, -1.71, 274.21, -3480.12, 0.000, 0.000, 0.000, 17:51:22.209
109, -498.41, -46.73, 264.10, -3416.77, 0.000, 0.000, 0.000, 17:51:22.223
110, -537.20, -72.22, 288.33, -3393.69, 0.000, 0.000, 0.000, 17:51:22.223
111, -493.29, -45.48, 297.92, -3358.20, 0.000, 0.000, 0.000, 17:51:22.238
112, -460.62, -36.60, 280.63, -3474.92, 0.000, 0.000, 0.000, 17:51:22.238
113, -510.64, -70.49, 278.32, -3383.49, 0.000, 0.000, 0.000, 17:51:22.253
114, -553.70, -93.82, 284.99, -3273.93, 0.000, 0.000, 0.000, 17:51:22.253
115, -521.58, -76.22, 292.06, -3429.02, 0.000, 0.000, 0.000, 17:51:22.254
116, -488.67, -56.84, 280.83, -3509.20, 0.000, 0.000, 0.000, 17:51:22.254
117, -528.99, -87.88, 260.58, -3345.07, 0.000, 0.000, 0.000, 17:51:22.268
118, -562.72, -107.63, 273.75, -3310.33, 0.000, 0.000, 0.000, 17:51:22.268
119, -524.88, -73.89, 299.09, -3471.97, 0.000, 0.000, 0.000, 17:51:22.268
120, -479.67, -55.91, 278.25, -3468.07, 0.000, 0.000, 0.000, 17:51:22.269
121, -531.71, -92.04, 265.22, -3411.77, 0.000, 0.000, 0.000, 17:51:22.283
122, -565.93, -106.66, 289.10, -3356.43, 0.000, 0.000, 0.000, 17:51:22.283
123, -515.46, -66.28, 303.11, -3368.74, 0.000, 0.000, 0.000, 17:51:22.298
124, -481.43, -51.77, 283.24, -3475.03, 0.000, 0.000, 0.000, 17:51:22.298
125, -528.75, -82.52, 275.96, -3420.16, 0.000, 0.000, 0.000, 17:51:22.299
126, -551.31, -91.63, 293.80, -3245.27, 0.000, 0.000, 0.000, 17:51:22.299
127, -504.84, -56.02, 301.66, -3365.61, 0.000, 0.000, 0.000, 17:51:22.313
128, -488.40, -50.22, 282.67, -3535.21, 0.000, 0.000, 0.000, 17:51:22.313
129, -530.57, -91.78, 250.24, -3374.90, 0.000, 0.000, 0.000, 17:51:22.328
130, -548.23, -89.89, 276.37, -3281.77, 0.000, 0.000, 0.000, 17:51:22.328
131, -511.10, -60.49, 289.82, -3431.38, 0.000, 0.000, 0.000, 17:51:22.329
132, -461.49, -34.48, 276.43, -3441.31, 0.000, 0.000, 0.000, 17:51:22.329
133, -509.79, -68.51, 258.11, -3365.71, 0.000, 0.000, 0.000, 17:51:22.343
134, -553.81, -87.14, 277.61, -3347.47, 0.000, 0.000, 0.000, 17:51:22.343
135, -504.99, -56.32, 284.98, -3384.62, 0.000, 0.000, 0.000, 17:51:22.358
136, -464.64, -33.10, 292.29, -3475.40, 0.000, 0.000, 0.000, 17:51:22.358
137, -515.63, -68.85, 266.16, -3388.81, 0.000, 0.000, 0.000, 17:51:22.358
138, -544.81, -86.78, 277.43, -3272.46, 0.000, 0.000, 0.000, 17:51:22.359
139, -502.27, -48.67, 300.81, -3413.72, 0.000, 0.000, 0.000, 17:51:22.373
140, -473.39, -31.70, 281.88, -3531.00, 0.000, 0.000, 0.000, 17:51:22.373
141, -497.76, -54.29, 272.62, -3353.61, 0.000, 0.000, 0.000, 17:51:22.388
142, -536.67, -73.06, 286.24, -3317.53, 0.000, 0.000, 0.000, 17:51:22.388
143, -493.67, -40.00, 307.49, -3403.70, 0.000, 0.000, 0.000, 17:51:22.389
144, -457.72, -22.58, 277.60, -3443.73, 0.000, 0.000, 0.000, 17:51:22.389
145, -502.94, -62.04, 261.39, -3384.57, 0.000, 0.000, 0.000, 17:51:22.403
146, -540.14, -75.77, 276.91, -3330.99, 0.000, 0.000, 0.000, 17:51:22.403
147, -492.50, -46.12, 280.74, -3377.37, 0.000, 0.000, 0.000, 17:51:22.418
148, -450.57, -17.90, 274.19, -3497.80, 0.000, 0.000, 0.000, 17:51:22.418
149, -504.07, -47.91, 259.78, -3403.64, 0.000, 0.000, 0.000, 17:51:22.418
150, -526.85, -64.24, 275.97, -3280.57, 0.000, 0.000, 0.000, 17:51:22.418
151, -487.87, -33.79, 297.70, -3397.04, 0.000, 0.000, 0.000, 17:51:22.433
152, -453.75, -20.35, 291.37, -3527.24, 0.000, 0.000, 0.000, 17:51:22.433
153, -492.08, -60.57, 270.74, -3396.57, 0.000, 0.000, 0.000, 17:51:22.448
154, -531.25, -68.77, 287.23, -3278.94, 0.000, 0.000, 0.000, 17:51:22.448
155, -484.75, -36.54, 297.38, -3380.63, 0.000, 0.000, 0.000, 17:51:22.449
156, -445.40, -17.68, 285.52, -3473.65, 0.000, 0.000, 0.000, 17:51:22.449
157, -494.78, -51.68, 253.10, -3389.21, 0.000, 0.000, 0.000, 17:51:22.463
158, -540.23, -73.89, 274.98, -3349.53, 0.000, 0.000, 0.000, 17:51:22.463
159, -478.98, -26.86, 295.56, -3334.46, 0.000, 0.000, 0.000, 17:51:22.478
160, -440.52, -11.49, 277.71, -3461.01, 0.000, 0.000, 0.000, 17:51:22.478
161, -489.44, -49.01, 263.89, -3424.97, 0.000, 0.000, 0.000, 17:51:22.479
162, -520.29, -60.74, 278.16, -3295.67, 0.000, 0.000, 0.000, 17:51:22.479
163, -479.26, -31.53, 294.33, -3429.21, 0.000, 0.000, 0.000, 17:51:22.493
164, -451.28, -18.78, 293.54, -3558.07, 0.000, 0.000, 0.000, 17:51:22.493
165, -487.62, -47.88, 262.95, -3360.59, 0.000, 0.000, 0.000, 17:51:22.508
166, -526.78, -66.06, 277.36, -3302.03, 0.000, 0.000, 0.000, 17:51:22.508
167, -475.18, -30.18, 297.17, -3416.29, 0.000, 0.000, 0.000, 17:51:22.509
168, -439.24, -10.87, 280.80, -3471.65, 0.000, 0.000, 0.000, 17:51:22.509
169, -484.02, -42.35, 262.23, -3401.71, 0.000, 0.000, 0.000, 17:51:22.523
170, -523.28, -55.59, 289.84, -3347.83, 0.000, 0.000, 0.000, 17:51:22.523
171, -474.00, -29.88, 295.61, -3373.05, 0.000, 0.000, 0.000, 17:51:22.538
172, -443.90, -14.35, 281.57, -3460.59, 0.000, 0.000, 0.000, 17:51:22.538
173, -488.95, -45.35, 276.02, -3366.70, 0.000, 0.000, 0.000, 17:51:22.539
174, -515.10, -51.81, 288.14, -3227.37, 0.000, 0.000, 0.000, 17:51:22.539
175, -476.68, -26.01, 295.07, -3388.15, 0.000, 0.000, 0.000, 17:51:22.553
176, -449.97, -17.70, 287.25, -3517.31, 0.000, 0.000, 0.000, 17:51:22.553
177, -484.20, -43.74, 261.33, -3328.71, 0.000, 0.000, 0.000, 17:51:22.568
178, -523.77, -60.28, 277.15, -3292.64, 0.000, 0.000, 0.000, 17:51:22.568
179, -486.19, -35.68, 295.75, -3391.18, 0.000, 0.000, 0.000, 17:51:22.569
180, -441.14, -11.23, 278.85, -3413.35, 0.000, 0.000, 0.000, 17:51:22.569
181, -482.20, -47.38, 251.38, -3360.98, 0.000, 0.000, 0.000, 17:51:22.583
182, -532.37, -59.46, 277.66, -3331.15, 0.000, 0.000, 0.000, 17:51:22.583
183, -467.43, -17.74, 305.48, -3341.79, 0.000, 0.000, 0.000, 17:51:22.598
184, -435.30, -7.76, 290.66, -3469.28, 0.000, 0.000, 0.000, 17:51:22.598
185, -480.54, -39.62, 264.57, -3374.22, 0.000, 0.000, 0.000, 17:51:22.598
186, -514.70, -59.94, 277.44, -3293.04, 0.000, 0.000, 0.000, 17:51:22.599
187, -480.24, -31.22, 279.94, -3394.18, 0.000, 0.000, 0.000, 17:51:22.613
188, -439.06, -3.21, 285.20, -3551.17, 0.000, 0.000, 0.000, 17:51:22.613
189, -476.14, -38.24, 266.77, -3379.58, 0.000, 0.000, 0.000, 17:51:22.628
190, -509.18, -56.99, 278.27, -3259.83, 0.000, 0.000, 0.000, 17:51:22.628
191, -479.31, -28.46, 293.71, -3398.36, 0.000, 0.000, 0.000, 17:51:22.629
192, -430.64, -4.09, 280.86, -3406.90, 0.000, 0.000, 0.000, 17:51:22.629
193, -479.57, -40.07, 258.79, -3366.82, 0.000, 0.000, 0.000, 17:51:22.643
194, -519.34, -58.66, 284.34, -3332.93, 0.000, 0.000, 0.000, 17:51:22.643
195, -476.04, -19.85, 295.83, -3392.44, 0.000, 0.000, 0.000, 17:51:22.658
196, -435.53, -3.63, 283.94, -3454.30, 0.000, 0.000, 0.000, 17:51:22.658
197, -476.10, -40.45, 264.17, -3396.26, 0.000, 0.000, 0.000, 17:51:22.658
198, -510.39, -53.57, 274.10, -3266.47, 0.000, 0.000, 0.000, 17:51:22.658
199, -478.04, -27.11, 284.91, -3374.63, 0.000, 0.000, 0.000, 17:51:22.673
200, -440.77, -10.53, 280.20, -3501.71, 0.000, 0.000, 0.000, 17:51:22.673
0, -471.61, -32.75, 259.41, -3320.74, 0.000, 0.000, 0.000, 17:51:22.673
1, -521.62, -63.93, 270.57, -3274.12, 0.000, 0.000, 0.000, 17:51:22.688
2, -487.00, -29.03, 308.74, -3433.98, 0.000, 0.000, 0.000, 17:51:22.688
3, -423.01, 10.08, 284.97, -3430.58, 0.000, 0.000, 0.000, 17:51:22.718
4, -470.29, -26.34, 264.04, -3358.05, 0.000, 0.000, 0.000, 17:51:22.718
5, -511.48, -52.68, 273.79, -3297.96, 0.000, 0.000, 0.000, 17:51:22.718
6, -468.28, -19.74, 290.86, -3373.38, 0.000, 0.000, 0.000, 17:51:22.718
7, -445.00, -8.91, 286.32, -3496.12, 0.000, 0.000, 0.000, 17:51:22.719
8, -484.54, -40.76, 265.77, -3386.38, 0.000, 0.000, 0.000, 17:51:22.719
9, -505.96, -45.64, 279.06, -3260.17, 0.000, 0.000, 0.000, 17:51:22.720
10, -476.05, -28.71, 298.99, -3385.92, 0.000, 0.000, 0.000, 17:51:22.720
11, -453.94, -18.67, 298.17, -3635.68, 0.000, 0.000, 0.000, 17:51:22.733
12, -463.70, -25.81, 275.14, -3288.02, 0.000, 0.000, 0.000, 17:51:22.733
13, -509.69, -52.71, 281.41, -3272.79, 0.000, 0.000, 0.000, 17:51:22.748
14, -473.42, -26.32, 301.90, -3405.64, 0.000, 0.000, 0.000, 17:51:22.748
15, -443.39, -10.18, 271.74, -3498.83, 0.000, 0.000, 0.000, 17:51:22.763
16, -477.98, -40.31, 266.50, -3430.07, 0.000, 0.000, 0.000, 17:51:22.763
17, -510.50, -54.31, 283.41, -3314.62, 0.000, 0.000, 0.000, 17:51:22.764
18, -474.81, -30.12, 293.36, -3391.91, 0.000, 0.000, 0.000, 17:51:22.764
19, -441.80, -9.01, 282.79, -3501.25, 0.000, 0.000, 0.000, 17:51:22.778
20, -485.24, -35.15, 264.80, -3446.46, 0.000, 0.000, 0.000, 17:51:22.778
21, -517.55, -67.05, 275.63, -3298.54, 0.000, 0.000, 0.000, 17:51:22.793
22, -477.48, -37.82, 286.88, -3390.38, 0.000, 0.000, 0.000, 17:51:22.793
23, -447.06, -10.45, 275.08, -3480.07, 0.000, 0.000, 0.000, 17:51:22.794
24, -473.98, -34.95, 260.64, -3339.11, 0.000, 0.000, 0.000, 17:51:22.794
25, -526.52, -62.53, 277.49, -3264.87, 0.000, 0.000, 0.000, 17:51:22.808
26, -487.63, -35.06, 294.37, -3440.99, 0.000, 0.000, 0.000, 17:51:22.808
27, -443.68, -9.14, 276.05, -3461.42, 0.000, 0.000, 0.000, 17:51:22.823
28, -485.77, -45.39, 258.38, -3383.58, 0.000, 0.000, 0.000, 17:51:22.823
29, -523.36, -56.97, 279.29, -3320.32, 0.000, 0.000, 0.000, 17:51:22.824
30, -483.25, -20.40, 292.03, -3388.08, 0.000, 0.000, 0.000, 17:51:22.824
31, -446.64, -6.94, 281.46, -3510.51, 0.000, 0.000, 0.000, 17:51:22.839
32, -489.02, -36.13, 273.01, -3446.99, 0.000, 0.000, 0.000, 17:51:22.839
33, -514.94, -55.69, 278.24, -3271.97, 0.000, 0.000, 0.000, 17:51:22.853
34, -475.89, -27.06, 296.74, -3378.82, 0.000, 0.000, 0.000, 17:51:22.853
35, -447.41, -12.70, 284.71, -3494.25, 0.000, 0.000, 0.000, 17:51:22.855
36, -470.40, -38.59, 267.69, -3372.68, 0.000, 0.000, 0.000, 17:51:22.855
37, -518.86, -62.75, 278.71, -3301.31, 0.000, 0.000, 0.000, 17:51:22.868
38, -480.14, -30.16, 303.36, -3416.64, 0.000, 0.000, 0.000, 17:51:22.868
39, -429.26, -2.31, 288.60, -3423.96, 0.000, 0.000, 0.000, 17:51:22.883
40, -474.25, -34.68, 267.00, -3376.77, 0.000, 0.000, 0.000, 17:51:22.883
41, -517.46, -61.15, 285.23, -3308.47, 0.000, 0.000, 0.000, 17:51:22.884
42, -477.19, -35.89, 300.00, -3357.94, 0.000, 0.000, 0.000, 17:51:22.884
43, -437.35, -11.88, 274.03, -3474.37, 0.000, 0.000, 0.000, 17:51:22.898
44, -488.10, -50.60, 266.88, -3421.43, 0.000, 0.000, 0.000, 17:51:22.898
45, -517.07, -56.93, 282.89, -3246.53, 0.000, 0.000, 0.000, 17:51:22.913
46, -481.30, -34.85, 292.86, -3364.52, 0.000, 0.000, 0.000, 17:51:22.913
47, -443.22, -9.67, 275.64, -3462.23, 0.000, 0.000, 0.000, 17:51:22.914
48, -469.30, -36.83, 261.07, -3328.78, 0.000, 0.000, 0.000, 17:51:22.914
49, -512.07, -56.45, 277.33, -3258.14, 0.000, 0.000, 0.000, 17:51:22.928
50, -482.72, -26.63, 299.65, -3455.66, 0.000, 0.000, 0.000, 17:51:22.928
51, -433.84, -2.60, 284.45, -3445.89, 0.000, 0.000, 0.000, 17:51:22.943
52, -479.57, -40.77, 259.20, -3385.12, 0.000, 0.000, 0.000, 17:51:22.943
53, -512.21, -52.18, 285.41, -3272.58, 0.000, 0.000, 0.000, 17:51:22.943
54, -465.17, -16.37, 301.51, -3309.02, 0.000, 0.000, 0.000, 17:51:22.943
55, -437.62, -8.24, 287.60, -3476.21, 0.000, 0.000, 0.000, 17:51:22.958
56, -475.86, -29.40, 272.49, -3405.32, 0.000, 0.000, 0.000, 17:51:22.958
57, -513.07, -56.22, 271.94, -3268.54, 0.000, 0.000, 0.000, 17:51:22.973
58, -479.15, -27.85, 295.02, -3389.66, 0.000, 0.000, 0.000, 17:51:22.973
59, -436.91, -0.09, 291.10, -3481.49, 0.000, 0.000, 0.000, 17:51:22.973
60, -474.95, -31.32, 264.20, -3334.96, 0.000, 0.000, 0.000, 17:51:22.974
61, -516.87, -54.34, 274.50, -3321.18, 0.000, 0.000, 0.000, 17:51:22.988
62, -489.25, -35.10, 305.98, -3480.06, 0.000, 0.000, 0.000, 17:51:22.988
63, -436.69, -3.83, 284.53, -3472.18, 0.000, 0.000, 0.000, 17:51:23.004
64, -469.16, -31.18, 273.18, -3354.59, 0.000, 0.000, 0.000, 17:51:23.004
65, -512.84, -55.79, 280.98, -3264.38, 0.000, 0.000, 0.000, 17:51:23.004
66, -469.90, -22.56, 290.73, -3361.11, 0.000, 0.000, 0.000, 17:51:23.004
67, -433.95, -3.51, 279.26, -3450.79, 0.000, 0.000, 0.000, 17:51:23.033
68, -466.96, -22.98, 276.49, -3419.08, 0.000, 0.000, 0.000, 17:51:23.033
69, -497.76, -39.09, 286.18, -3252.16, 0.000, 0.000, 0.000, 17:51:23.033
70, -463.69, -12.22, 304.75, -3359.78, 0.000, 0.000, 0.000, 17:51:23.033
71, -421.93, 1.99, 283.93, -3436.43, 0.000, 0.000, 0.000, 17:51:23.034
72, -455.15, -17.58, 262.98, -3313.88, 0.000, 0.000, 0.000, 17:51:23.034
73, -498.45, -46.40, 274.65, -3251.54, 0.000, 0.000, 0.000, 17:51:23.048
74, -473.51, -22.60, 301.41, -3459.46, 0.000, 0.000, 0.000, 17:51:23.048
75, -415.58, 9.78, 281.37, -3457.31, 0.000, 0.000, 0.000, 17:51:23.063
76, -455.77, -19.72, 270.55, -3355.43, 0.000, 0.000, 0.000, 17:51:23.063
77, -497.08, -40.26, 292.67, -3270.93, 0.000, 0.000, 0.000, 17:51:23.064
78, -460.76, -13.08, 300.04, -3320.48, 0.000, 0.000, 0.000, 17:51:23.064
79, -424.66, 4.71, 289.83, -3474.10, 0.000, 0.000, 0.000, 17:51:23.078
80, -465.54, -22.55, 271.11, -3435.11, 0.000, 0.000, 0.000, 17:51:23.078
81, -501.65, -50.35, 270.93, -3253.91, 0.000, 0.000, 0.000, 17:51:23.093
82, -463.76, -20.38, 296.38, -3384.16, 0.000, 0.000, 0.000, 17:51:23.093
83, -437.95, -1.31, 290.54, -3481.02, 0.000, 0.000, 0.000, 17:51:23.094
84, -474.20, -32.13, 271.75, -3360.67, 0.000, 0.000, 0.000, 17:51:23.094
85, -508.95, -49.90, 283.73, -3277.50, 0.000, 0.000, 0.000, 17:51:23.108
86, -479.10, -20.81, 300.01, -3434.40, 0.000, 0.000, 0.000, 17:51:23.108
87, -429.02, 2.94, 284.68, -3432.68, 0.000, 0.000, 0.000, 17:51:23.123
88, -470.91, -30.38, 266.91, -3361.44, 0.000, 0.000, 0.000, 17:51:23.123
89, -510.03, -50.95, 285.23, -3283.69, 0.000, 0.000, 0.000, 17:51:23.123
90, -480.10, -32.33, 286.85, -3361.83, 0.000, 0.000, 0.000, 17:51:23.123
91, -431.06, -6.84, 279.62, -3471.00, 0.000, 0.000, 0.000, 17:51:23.138
92, -478.41, -34.05, 275.01, -3450.66, 0.000, 0.000, 0.000, 17:51:23.138
93, -519.96, -65.90, 273.73, -3308.40, 0.000, 0.000, 0.000, 17:51:23.153
94, -478.14, -33.94, 302.96, -3379.93, 0.000, 0.000, 0.000, 17:51:23.153
95, -436.70, -11.07, 278.90, -3478.32, 0.000, 0.000, 0.000, 17:51:23.154
96, -480.41, -35.94, 262.76, -3373.68, 0.000, 0.000, 0.000, 17:51:23.154
97, -512.26, -51.76, 281.80, -3292.04, 0.000, 0.000, 0.000, 17:51:23.168
98, -494.39, -41.50, 293.19, -3454.30, 0.000, 0.000, 0.000, 17:51:23.168
99, -441.98, -14.02, 282.69, -3455.83, 0.000, 0.000, 0.000, 17:51:23.183
100, -479.30, -43.57, 259.21, -3371.11, 0.000, 0.000, 0.000, 17:51:23.183
101, -516.80, -64.41, 278.38, -3278.85, 0.000, 0.000, 0.000, 17:51:23.184
102, -477.32, -33.57, 289.25, -3367.45, 0.000, 0.000, 0.000, 17:51:23.184
103, -444.00, -12.35, 284.91, -3475.76, 0.000, 0.000, 0.000, 17:51:23.198
104, -486.69, -46.62, 271.09, -3471.54, 0.000, 0.000, 0.000, 17:51:23.198
105, -515.36, -67.08, 276.95, -3257.89, 0.000, 0.000, 0.000, 17:51:23.213
106, -489.34, -45.37, 285.78, -3368.87, 0.000, 0.000, 0.000, 17:51:23.213
107, -447.19, -12.39, 279.71, -3477.27, 0.000, 0.000, 0.000, 17:51:23.214
108, -478.71, -43.77, 255.50, -3385.23, 0.000, 0.000, 0.000, 17:51:23.214
109, -517.58, -65.15, 275.60, -3310.22, 0.000, 0.000, 0.000, 17:51:23.228
110, -491.18, -42.88, 300.32, -3439.94, 0.000, 0.000, 0.000, 17:51:23.228
111, -444.89, -15.77, 286.00, -3477.24, 0.000, 0.000, 0.000, 17:51:23.243
112, -480.07, -35.14, 266.94, -3413.19, 0.000, 0.000, 0.000, 17:51:23.243
113, -525.15, -65.50, 282.13, -3352.64, 0.000, 0.000, 0.000, 17:51:23.244
114, -479.86, -23.60, 311.12, -3380.17, 0.000, 0.000, 0.000, 17:51:23.244
115, -437.94, -2.05, 295.14, -3477.07, 0.000, 0.000, 0.000, 17:51:23.258
116, -482.88, -36.70, 275.06, -3468.40, 0.000, 0.000, 0.000, 17:51:23.258
117, -517.69, -56.83, 279.25, -3287.42, 0.000, 0.000, 0.000, 17:51:23.273
118, -477.59, -25.52, 303.79, -3367.38, 0.000, 0.000, 0.000, 17:51:23.273
119, -440.81, 0.76, 293.89, -3497.98, 0.000, 0.000, 0.000, 17:51:23.274
120, -465.53, -30.11, 263.54, -3389.44, 0.000, 0.000, 0.000, 17:51:23.274
121, -518.77, -59.49, 277.58, -3321.14, 0.000, 0.000, 0.000, 17:51:23.288
122, -495.85, -36.35, 300.46, -3441.33, 0.000, 0.000, 0.000, 17:51:23.288
123, -442.64, 1.67, 287.48, -3458.52, 0.000, 0.000, 0.000, 17:51:23.303
124, -472.58, -31.05, 270.25, -3403.95, 0.000, 0.000, 0.000, 17:51:23.303
125, -524.91, -54.91, 288.56, -3311.74, 0.000, 0.000, 0.000, 17:51:23.303
126, -483.61, -31.73, 305.41, -3377.51, 0.000, 0.000, 0.000, 17:51:23.304
127, -438.27, -6.66, 293.04, -3446.42, 0.000, 0.000, 0.000, 17:51:23.318
128, -486.30, -36.17, 273.53, -3437.89, 0.000, 0.000, 0.000, 17:51:23.318
129, -516.29, -58.78, 278.72, -3230.76, 0.000, 0.000, 0.000, 17:51:23.333
130, -488.00, -29.55, 294.23, -3366.21, 0.000, 0.000, 0.000, 17:51:23.333
131, -443.54, -6.30, 281.68, -3471.40, 0.000, 0.000, 0.000, 17:51:23.334
132, -476.59, -31.92, 262.03, -3360.80, 0.000, 0.000, 0.000, 17:51:23.334
133, -521.59, -62.40, 274.74, -3315.41, 0.000, 0.000, 0.000, 17:51:23.348
134, -493.74, -38.87, 307.71, -3443.94, 0.000, 0.000, 0.000, 17:51:23.348
135, -435.24, -8.20, 293.33, -3476.71, 0.000, 0.000, 0.000, 17:51:23.363
136, -474.48, -28.98, 263.47, -3417.37, 0.000, 0.000, 0.000, 17:51:23.363
137, -517.45, -60.50, 276.60, -3335.48, 0.000, 0.000, 0.000, 17:51:23.364
138, -499.26, -42.06, 281.06, -3402.24, 0.000, 0.000, 0.000, 17:51:23.364
139, -437.63, -2.11, 289.91, -3478.56, 0.000, 0.000, 0.000, 17:51:23.378
140, -487.53, -35.49, 272.58, -3443.01, 0.000, 0.000, 0.000, 17:51:23.378
141, -517.57, -59.70, 275.42, -3259.31, 0.000, 0.000, 0.000, 17:51:23.393
142, -490.51, -38.25, 291.19, -3389.50, 0.000, 0.000, 0.000, 17:51:23.393
143, -446.77, -13.48, 280.23, -3489.49, 0.000, 0.000, 0.000, 17:51:23.393
144, -471.41, -36.26, 262.80, -3377.85, 0.000, 0.000, 0.000, 17:51:23.393
145, -517.34, -59.59, 278.76, -3298.85, 0.000, 0.000, 0.000, 17:51:23.408
146, -493.52, -38.32, 295.74, -3455.72, 0.000, 0.000, 0.000, 17:51:23.408
147, -434.57, -5.94, 287.52, -3456.14, 0.000, 0.000, 0.000, 17:51:23.423
148, -470.73, -33.12, 263.69, -3381.81, 0.000, 0.000, 0.000, 17:51:23.423
149, -522.86, -66.67, 267.03, -3281.88, 0.000, 0.000, 0.000, 17:51:23.424
150, -485.41, -36.02, 288.85, -3361.96, 0.000, 0.000, 0.000, 17:51:23.424
151, -434.39, -6.54, 290.95, -3463.17, 0.000, 0.000, 0.000, 17:51:23.438
152, -474.32, -31.47, 266.41, -3421.69, 0.000, 0.000, 0.000, 17:51:23.438
153, -507.21, -51.14, 268.08, -3264.08, 0.000, 0.000, 0.000, 17:51:23.453
154, -484.11, -31.96, 289.69, -3419.12, 0.000, 0.000, 0.000, 17:51:23.453
155, -440.82, -9.81, 286.00, -3515.52, 0.000, 0.000, 0.000, 17:51:23.454
156, -461.68, -38.86, 268.98, -3388.11, 0.000, 0.000, 0.000, 17:51:23.454
157, -516.08, -56.76, 279.18, -3298.00, 0.000, 0.000, 0.000, 17:51:23.472
158, -485.80, -32.00, 301.02, -3413.08, 0.000, 0.000, 0.000, 17:51:23.472
159, -433.65, -1.23, 290.53, -3436.58, 0.000, 0.000, 0.000, 17:51:23.483
160, -469.64, -32.46, 260.63, -3409.00, 0.000, 0.000, 0.000, 17:51:23.483
161, -512.60, -56.18, 265.04, -3304.79, 0.000, 0.000, 0.000, 17:51:23.484
162, -477.02, -27.48, 292.17, -3366.22, 0.000, 0.000, 0.000, 17:51:23.484
163, -440.91, -11.06, 281.65, -3487.40, 0.000, 0.000, 0.000, 17:51:23.498
164, -476.81, -31.27, 273.25, -3463.19, 0.000, 0.000, 0.000, 17:51:23.498
165, -506.85, -49.72, 277.69, -3286.28, 0.000, 0.000, 0.000, 17:51:23.513
166, -488.26, -34.38, 288.45, -3388.13, 0.000, 0.000, 0.000, 17:51:23.513
167, -437.79, -8.21, 293.75, -3486.16, 0.000, 0.000, 0.000, 17:51:23.514
168, -465.58, -27.08, 269.42, -3333.20, 0.000, 0.000, 0.000, 17:51:23.514
169, -509.15, -49.00, 267.17, -3263.02, 0.000, 0.000, 0.000, 17:51:23.528
170, -497.13, -38.18, 279.27, -3413.08, 0.000, 0.000, 0.000, 17:51:23.528
171, -440.39, -15.69, 272.97, -3446.04, 0.000, 0.000, 0.000, 17:51:23.543
172, -469.52, -29.74, 263.27, -3405.02, 0.000, 0.000, 0.000, 17:51:23.543
173, -522.68, -61.33, 272.03, -3308.91, 0.000, 0.000, 0.000, 17:51:23.543
174, -491.59, -35.91, 298.00, -3345.73, 0.000, 0.000, 0.000, 17:51:23.543
175, -451.71, -16.81, 283.95, -3473.41, 0.000, 0.000, 0.000, 17:51:23.558
176, -480.32, -38.89, 265.94, -3461.00, 0.000, 0.000, 0.000, 17:51:23.558
177, -519.79, -62.92, 263.50, -3276.50, 0.000, 0.000, 0.000, 17:51:23.573
178, -486.43, -38.19, 286.39, -3354.86, 0.000, 0.000, 0.000, 17:51:23.573
179, -442.46, -8.72, 281.58, -3492.98, 0.000, 0.000, 0.000, 17:51:23.574
180, -472.24, -29.63, 263.07, -3364.67, 0.000, 0.000, 0.000, 17:51:23.574
181, -520.46, -55.60, 263.38, -3302.41, 0.000, 0.000, 0.000, 17:51:23.588
182, -492.50, -33.43, 296.70, -3417.55, 0.000, 0.000, 0.000, 17:51:23.588
183, -442.83, -8.08, 281.24, -3440.76, 0.000, 0.000, 0.000, 17:51:23.603
184, -477.57, -39.57, 255.46, -3423.23, 0.000, 0.000, 0.000, 17:51:23.603
185, -515.76, -49.35, 287.50, -3301.57, 0.000, 0.000, 0.000, 17:51:23.604
186, -488.54, -29.69, 293.67, -3357.97, 0.000, 0.000, 0.000, 17:51:23.604
187, -443.71, -3.44, 287.50, -3476.74, 0.000, 0.000, 0.000, 17:51:23.618
188, -477.23, -37.42, 264.63, -3484.37, 0.000, 0.000, 0.000, 17:51:23.618
189, -512.78, -52.54, 277.21, -3298.62, 0.000, 0.000, 0.000, 17:51:23.633
190, -486.64, -30.40, 290.63, -3377.24, 0.000, 0.000, 0.000, 17:51:23.633
191, -445.14, -11.60, 278.33, -3481.92, 0.000, 0.000, 0.000, 17:51:23.633
192, -472.91, -48.61, 255.05, -3391.57, 0.000, 0.000, 0.000, 17:51:23.633
193, -523.95, -76.07, 265.62, -3272.23, 0.000, 0.000, 0.000, 17:51:23.648
194, -487.53, -42.63, 306.78, -3425.42, 0.000, 0.000, 0.000, 17:51:23.648
195, -431.50, -14.51, 284.24, -3460.82, 0.000, 0.000, 0.000, 17:51:23.678
196, -465.64, -40.02, 265.86, -3411.45, 0.000, 0.000, 0.000, 17:51:23.678
197, -514.64, -65.33, 280.01, -3328.71, 0.000, 0.000, 0.000, 17:51:23.678
198, -494.43, -53.74, 288.20, -3354.57, 0.000, 0.000, 0.000, 17:51:23.678
199, -453.11, -32.25, 273.61, -3494.66, 0.000, 0.000, 0.000, 17:51:23.679
200, -477.86, -49.87, 257.57, -3397.29, 0.000, 0.000, 0.000, 17:51:23.679
0, -527.02, -71.81, 260.61, -3292.03, 0.000, 0.000, 0.000, 17:51:23.680
1, -492.05, -44.97, 294.39, -3399.00, 0.000, 0.000, 0.000, 17:51:23.693
2, -473.39, -33.77, 283.30, -3690.94, 0.000, 0.000, 0.000, 17:51:23.693
3, -467.34, -37.19, 255.94, -3354.54, 0.000, 0.000, 0.000, 17:51:23.708
4, -507.70, -59.90, 276.49, -3263.45, 0.000, 0.000, 0.000, 17:51:23.708
5, -487.79, -40.89, 290.53, -3370.12, 0.000, 0.000, 0.000, 17:51:23.709
6, -442.56, -13.81, 277.95, -3444.49, 0.000, 0.000, 0.000, 17:51:23.709
7, -476.29, -37.60, 262.54, -3393.64, 0.000, 0.000, 0.000, 17:51:23.723
8, -529.39, -67.34, 278.33, -3343.56, 0.000, 0.000, 0.000, 17:51:23.723
9, -492.18, -36.71, 287.90, -3311.55, 0.000, 0.000, 0.000, 17:51:23.738
10, -437.84, -6.20, 280.67, -3443.65, 0.000, 0.000, 0.000, 17:51:23.738
11, -475.89, -41.00, 259.91, -3405.66, 0.000, 0.000, 0.000, 17:51:23.739
12, -510.88, -59.86, 270.58, -3253.08, 0.000, 0.000, 0.000, 17:51:23.739
13, -485.59, -33.14, 287.43, -3337.69, 0.000, 0.000, 0.000, 17:51:23.753
14, -451.69, -15.61, 272.39, -3555.03, 0.000, 0.000, 0.000, 17:51:23.753
15, -473.40, -36.94, 259.43, -3375.14, 0.000, 0.000, 0.000, 17:51:23.768
16, -519.80, -62.79, 267.69, -3293.88, 0.000, 0.000, 0.000, 17:51:23.768
17, -487.88, -31.97, 301.45, -3347.92, 0.000, 0.000, 0.000, 17:51:23.769
18, -437.93, -6.01, 287.30, -3450.05, 0.000, 0.000, 0.000, 17:51:23.769
19, -472.56, -36.89, 257.99, -3397.05, 0.000, 0.000, 0.000, 17:51:23.783
20, -529.40, -63.11, 278.55, -3342.55, 0.000, 0.000, 0.000, 17:51:23.783
21, -483.39, -33.10, 291.14, -3309.75, 0.000, 0.000, 0.000, 17:51:23.798
22, -445.23, -11.57, 275.37, -3498.51, 0.000, 0.000, 0.000, 17:51:23.798
23, -479.39, -38.27, 257.58, -3437.81, 0.000, 0.000, 0.000, 17:51:23.799
24, -513.92, -59.17, 270.17, -3262.35, 0.000, 0.000, 0.000, 17:51:23.799
25, -484.43, -31.68, 291.23, -3361.40, 0.000, 0.000, 0.000, 17:51:23.813
26, -444.54, -11.49, 291.28, -3549.19, 0.000, 0.000, 0.000, 17:51:23.813
27, -459.78, -24.98, 271.87, -3349.89, 0.000, 0.000, 0.000, 17:51:23.828
28, -516.19, -60.01, 277.92, -3301.23, 0.000, 0.000, 0.000, 17:51:23.828
29, -501.74, -43.26, 294.90, -3372.63, 0.000, 0.000, 0.000, 17:51:23.828
30, -455.05, -15.26, 274.58, -3418.31, 0.000, 0.000, 0.000, 17:51:23.828
31, -482.95, -45.89, 254.35, -3407.00, 0.000, 0.000, 0.000, 17:51:23.843
32, -520.43, -65.40, 275.77, -3310.04, 0.000, 0.000, 0.000, 17:51:23.843
33, -487.77, -36.33, 293.29, -3313.34, 0.000, 0.000, 0.000, 17:51:23.858
34, -446.94, -14.91, 279.99, -3479.96, 0.000, 0.000, 0.000, 17:51:23.858
35, -471.15, -32.59, 264.96, -3404.34, 0.000, 0.000, 0.000, 17:51:23.859
36, -510.05, -51.77, 280.81, -3269.16, 0.000, 0.000, 0.000, 17:51:23.859
37, -491.20, -32.50, 285.76, -3375.04, 0.000, 0.000, 0.000, 17:51:23.873
38, -449.91, -8.91, 285.85, -3531.14, 0.000, 0.000, 0.000, 17:51:23.873
39, -473.22, -34.93, 263.33, -3404.02, 0.000, 0.000, 0.000, 17:51:23.888
40, -509.20, -55.44, 275.84, -3276.53, 0.000, 0.000, 0.000, 17:51:23.888
41, -497.34, -42.74, 294.86, -3374.49, 0.000, 0.000, 0.000, 17:51:23.889
42, -445.11, -13.15, 289.11, -3471.62, 0.000, 0.000, 0.000, 17:51:23.889
43, -469.74, -39.13, 262.94, -3391.43, 0.000, 0.000, 0.000, 17:51:23.903
44, -522.83, -61.92, 279.47, -3353.16, 0.000, 0.000, 0.000, 17:51:23.903
45, -490.58, -35.66, 299.55, -3323.10, 0.000, 0.000, 0.000, 17:51:23.918
46, -436.07, -3.40, 282.39, -3457.43, 0.000, 0.000, 0.000, 17:51:23.918
47, -470.28, -32.54, 263.40, -3416.45, 0.000, 0.000, 0.000, 17:51:23.919
48, -515.41, -61.34, 267.14, -3275.68, 0.000, 0.000, 0.000, 17:51:23.919
49, -485.20, -28.59, 290.76, -3367.68, 0.000, 0.000, 0.000, 17:51:23.933
50, -458.74, -17.07, 279.53, -3561.50, 0.000, 0.000, 0.000, 17:51:23.933
51, -468.85, -32.65, 258.59, -3382.40, 0.000, 0.000, 0.000, 17:51:23.948
52, -518.07, -62.31, 266.56, -3295.53, 0.000, 0.000, 0.000, 17:51:23.948
53, -491.38, -36.81, 292.87, -3358.94, 0.000, 0.000, 0.000, 17:51:23.949
54, -445.09, -7.63, 284.07, -3441.61, 0.000, 0.000, 0.000, 17:51:23.949
55, -465.64, -25.54, 257.50, -3387.08, 0.000, 0.000, 0.000, 17:51:23.963
56, -516.96, -58.54, 272.01, -3334.03, 0.000, 0.000, 0.000, 17:51:23.963
57, -485.58, -41.17, 284.99, -3332.25, 0.000, 0.000, 0.000, 17:51:23.993
58, -442.70, -20.07, 272.57, -3472.06, 0.000, 0.000, 0.000, 17:51:23.993
59, -472.61, -39.92, 254.84, -3441.00, 0.000, 0.000, 0.000, 17:51:23.993
60, -507.59, -57.04, 273.12, -3285.13, 0.000, 0.000, 0.000, 17:51:23.993
61, -490.71, -42.23, 284.07, -3388.13, 0.000, 0.000, 0.000, 17:51:23.994
62, -443.93, -15.72, 286.27, -3485.27, 0.000, 0.000, 0.000, 17:51:23.994
63, -475.68, -44.46, 265.16, -3436.77, 0.000, 0.000, 0.000, 17:51:23.995
64, -518.95, -58.01, 276.11, -3296.61, 0.000, 0.000, 0.000, 17:51:23.995
65, -496.07, -34.79, 313.22, -3549.83, 0.000, 0.000, 0.000, 17:51:24.008
66, -428.54, 2.47, 288.36, -3417.77, 0.000, 0.000, 0.000, 17:51:24.008
67, -464.30, -30.98, 256.36, -3423.24, 0.000, 0.000, 0.000, 17:51:24.023
68, -531.75, -67.73, 271.02, -3349.13, 0.000, 0.000, 0.000, 17:51:24.023
69, -491.53, -35.35, 292.93, -3369.57, 0.000, 0.000, 0.000, 17:51:24.038
70, -451.99, -18.25, 284.32, -3480.52, 0.000, 0.000, 0.000, 17:51:24.038
71, -472.39, -40.31, 265.79, -3420.92, 0.000, 0.000, 0.000, 17:51:24.039
72, -520.03, -57.35, 261.51, -3279.26, 0.000, 0.000, 0.000, 17:51:24.039
73, -490.32, -35.64, 284.80, -3355.36, 0.000, 0.000, 0.000, 17:51:24.053
74, -450.77, -8.61, 289.62, -3537.53, 0.000, 0.000, 0.000, 17:51:24.053
75, -469.03, -30.59, 261.59, -3394.50, 0.000, 0.000, 0.000, 17:51:24.068
76, -511.17, -52.22, 274.95, -3288.08, 0.000, 0.000, 0.000, 17:51:24.068
77, -494.27, -36.90, 289.31, -3366.91, 0.000, 0.000, 0.000, 17:51:24.069
78, -444.92, -8.53, 276.21, -3450.89, 0.000, 0.000, 0.000, 17:51:24.069
79, -468.68, -34.95, 258.69, -3424.88, 0.000, 0.000, 0.000, 17:51:24.083
80, -519.87, -58.64, 280.27, -3364.03, 0.000, 0.000, 0.000, 17:51:24.083
81, -494.49, -39.38, 287.14, -3345.83, 0.000, 0.000, 0.000, 17:51:24.098
82, -443.39, -9.28, 279.93, -3500.56, 0.000, 0.000, 0.000, 17:51:24.098
83, -468.67, -27.11, 268.62, -3432.73, 0.000, 0.000, 0.000, 17:51:24.099
84, -511.06, -57.19, 275.69, -3320.39, 0.000, 0.000, 0.000, 17:51:24.099
85, -488.98, -36.75, 293.92, -3385.75, 0.000, 0.000, 0.000, 17:51:24.113
86, -445.32, -10.06, 279.17, -3541.77, 0.000, 0.000, 0.000, 17:51:24.113
87, -458.99, -28.86, 261.08, -3395.98, 0.000, 0.000, 0.000, 17:51:24.128
88, -505.10, -53.09, 279.80, -3312.35, 0.000, 0.000, 0.000, 17:51:24.128
89, -476.90, -25.28, 288.03, -3376.12, 0.000, 0.000, 0.000, 17:51:24.129
90, -431.27, -3.44, 275.86, -3445.83, 0.000, 0.000, 0.000, 17:51:24.129
91, -456.40, -24.37, 259.39, -3391.99, 0.000, 0.000, 0.000, 17:51:24.143
92, -514.86, -53.58, 270.84, -3349.77, 0.000, 0.000, 0.000, 17:51:24.143
93, -481.86, -29.56, 295.25, -3323.43, 0.000, 0.000, 0.000, 17:51:24.158
94, -438.61, -9.49, 282.38, -3466.98, 0.000, 0.000, 0.000, 17:51:24.158
95, -464.16, -28.79, 269.61, -3447.56, 0.000, 0.000, 0.000, 17:51:24.158
96, -513.10, -54.27, 266.69, -3290.67, 0.000, 0.000, 0.000, 17:51:24.159
97, -487.33, -39.64, 286.96, -3388.96, 0.000, 0.000, 0.000, 17:51:24.173
98, -453.31, -15.00, 288.29, -3538.17, 0.000, 0.000, 0.000, 17:51:24.173
99, -466.08, -30.76, 261.12, -3411.12, 0.000, 0.000, 0.000, 17:51:24.188
100, -514.64, -54.58, 260.46, -3303.84, 0.000, 0.000, 0.000, 17:51:24.188
101, -491.89, -35.10, 292.36, -3372.19, 0.000, 0.000, 0.000, 17:51:24.188
102, -435.79, -6.10, 282.71, -3464.22, 0.000, 0.000, 0.000, 17:51:24.189
103, -453.69, -22.88, 266.12, -3411.01, 0.000, 0.000, 0.000, 17:51:24.203
104, -509.04, -53.66, 283.28, -3356.79, 0.000, 0.000, 0.000, 17:51:24.203
105, -484.97, -35.79, 287.73, -3311.94, 0.000, 0.000, 0.000, 17:51:24.218
106, -437.25, -7.63, 278.83, -3450.27, 0.000, 0.000, 0.000, 17:51:24.218
107, -465.21, -28.31, 264.81, -3393.89, 0.000, 0.000, 0.000, 17:51:24.219
108, -505.88, -54.80, 272.27, -3305.45, 0.000, 0.000, 0.000, 17:51:24.219
109, -478.58, -32.56, 292.97, -3331.64, 0.000, 0.000, 0.000, 17:51:24.233
110, -442.79, -5.90, 292.41, -3506.20, 0.000, 0.000, 0.000, 17:51:24.233
111, -458.24, -26.89, 258.22, -3362.34, 0.000, 0.000, 0.000, 17:51:24.248
112, -500.16, -45.25, 274.80, -3258.27, 0.000, 0.000, 0.000, 17:51:24.248
113, -499.20, -39.43, 294.81, -3352.69, 0.000, 0.000, 0.000, 17:51:24.249
114, -438.09, -4.11, 289.98, -3402.38, 0.000, 0.000, 0.000, 17:51:24.249
115, -464.82, -24.65, 261.85, -3406.75, 0.000, 0.000, 0.000, 17:51:24.263
116, -538.98, -68.87, 265.75, -3364.59, 0.000, 0.000, 0.000, 17:51:24.263
117, -503.00, -47.17, 279.45, -3353.17, 0.000, 0.000, 0.000, 17:51:24.278
118, -450.07, -13.86, 281.95, -3476.82, 0.000, 0.000, 0.000, 17:51:24.278
119, -468.45, -28.94, 272.49, -3421.52, 0.000, 0.000, 0.000, 17:51:24.279
120, -520.03, -55.99, 269.69, -3271.29, 0.000, 0.000, 0.000, 17:51:24.279
121, -496.54, -37.17, 289.56, -3341.10, 0.000, 0.000, 0.000, 17:51:24.293
122, -458.77, -12.63, 284.71, -3502.61, 0.000, 0.000, 0.000, 17:51:24.293
123, -470.79, -29.18, 259.08, -3371.65, 0.000, 0.000, 0.000, 17:51:24.308
124, -518.22, -56.01, 272.55, -3267.27, 0.000, 0.000, 0.000, 17:51:24.308
125, -496.67, -37.32, 291.73, -3363.18, 0.000, 0.000, 0.000, 17:51:24.309
126, -437.36, -5.79, 284.21, -3420.20, 0.000, 0.000, 0.000, 17:51:24.309
127, -454.09, -22.79, 262.57, -3388.06, 0.000, 0.000, 0.000, 17:51:24.323
128, -516.46, -55.35, 274.88, -3347.30, 0.000, 0.000, 0.000, 17:51:24.323
129, -490.69, -31.13, 287.99, -3317.67, 0.000, 0.000, 0.000, 17:51:24.338
130, -445.08, -7.30, 283.43, -3464.73, 0.000, 0.000, 0.000, 17:51:24.338
131, -468.97, -36.14, 263.29, -3451.81, 0.000, 0.000, 0.000, 17:51:24.339
132, -511.38, -55.69, 266.01, -3308.67, 0.000, 0.000, 0.000, 17:51:24.339
133, -492.88, -40.99, 283.55, -3364.86, 0.000, 0.000, 0.000, 17:51:24.353
134, -440.80, -14.07, 285.39, -3526.59, 0.000, 0.000, 0.000, 17:51:24.353
135, -458.02, -29.89, 258.72, -3407.14, 0.000, 0.000, 0.000, 17:51:24.368
136, -510.89, -60.86, 264.75, -3344.94, 0.000, 0.000, 0.000, 17:51:24.368
137, -507.90, -45.98, 290.82, -3415.00, 0.000, 0.000, 0.000, 17:51:24.369
138, -445.95, -11.94, 285.78, -3483.94, 0.000, 0.000, 0.000, 17:51:24.369
139, -470.90, -32.13, 263.65, -3459.57, 0.000, 0.000, 0.000, 17:51:24.383
140, -532.93, -73.32, 267.01, -3388.70, 0.000, 0.000, 0.000, 17:51:24.383
141, -494.25, -49.37, 279.44, -3342.14, 0.000, 0.000, 0.000, 17:51:24.398
142, -451.45, -17.79, 276.80, -3490.26, 0.000, 0.000, 0.000, 17:51:24.398
143, -460.68, -18.95, 271.64, -3442.14, 0.000, 0.000, 0.000, 17:51:24.399
144, -513.25, -62.46, 256.03, -3294.09, 0.000, 0.000, 0.000, 17:51:24.399
145, -499.39, -44.13, 284.37, -3366.23, 0.000, 0.000, 0.000, 17:51:24.413
146, -454.81, -17.67, 283.97, -3528.21, 0.000, 0.000, 0.000, 17:51:24.413
147, -467.03, -31.82, 265.67, -3394.62, 0.000, 0.000, 0.000, 17:51:24.428
148, -505.45, -53.65, 272.56, -3264.10, 0.000, 0.000, 0.000, 17:51:24.428
149, -497.18, -36.76, 291.14, -3350.91, 0.000, 0.000, 0.000, 17:51:24.428
150, -450.55, -22.08, 274.00, -3443.78, 0.000, 0.000, 0.000, 17:51:24.429
151, -468.83, -34.99, 252.67, -3421.31, 0.000, 0.000, 0.000, 17:51:24.443
152, -521.62, -59.12, 269.61, -3363.63, 0.000, 0.000, 0.000, 17:51:24.443
153, -499.53, -39.64, 286.83, -3333.14, 0.000, 0.000, 0.000, 17:51:24.458
154, -455.68, -21.46, 285.20, -3452.77, 0.000, 0.000, 0.000, 17:51:24.458
155, -479.20, -41.88, 261.33, -3414.21, 0.000, 0.000, 0.000, 17:51:24.461
156, -531.90, -68.93, 254.26, -3286.60, 0.000, 0.000, 0.000, 17:51:24.462
157, -500.82, -45.54, 290.59, -3354.37, 0.000, 0.000, 0.000, 17:51:24.473
158, -463.10, -22.82, 284.99, -3511.80, 0.000, 0.000, 0.000, 17:51:24.473
159, -464.71, -29.78, 270.11, -3362.90, 0.000, 0.000, 0.000, 17:51:24.488
160, -514.80, -58.75, 270.05, -3248.33, 0.000, 0.000, 0.000, 17:51:24.488
161, -493.96, -41.38, 290.08, -3325.15, 0.000, 0.000, 0.000, 17:51:24.488
162, -447.63, -16.31, 276.41, -3424.34, 0.000, 0.000, 0.000, 17:51:24.488
163, -467.49, -33.37, 255.71, -3418.63, 0.000, 0.000, 0.000, 17:51:24.503
164, -513.42, -53.54, 282.18, -3320.00, 0.000, 0.000, 0.000, 17:51:24.503
165, -482.71, -31.67, 296.54, -3324.41, 0.000, 0.000, 0.000, 17:51:24.518
166, -437.15, -5.71, 293.69, -3463.63, 0.000, 0.000, 0.000, 17:51:24.518
167, -458.58, -26.15, 270.94, -3417.72, 0.000, 0.000, 0.000, 17:51:24.518
168, -504.64, -50.86, 274.11, -3265.26, 0.000, 0.000, 0.000, 17:51:24.519
169, -489.88, -37.03, 295.92, -3347.31, 0.000, 0.000, 0.000, 17:51:24.533
170, -454.72, -11.00, 286.73, -3562.02, 0.000, 0.000, 0.000, 17:51:24.534
171, -460.32, -24.68, 264.90, -3403.51, 0.000, 0.000, 0.000, 17:51:24.548
172, -511.95, -57.26, 271.83, -3271.26, 0.000, 0.000, 0.000, 17:51:24.548
173, -492.61, -38.46, 291.04, -3326.60, 0.000, 0.000, 0.000, 17:51:24.549
174, -434.17, -4.87, 284.27, -3428.87, 0.000, 0.000, 0.000, 17:51:24.549
175, -447.72, -19.00, 268.66, -3417.34, 0.000, 0.000, 0.000, 17:51:24.563
176, -507.58, -50.74, 271.29, -3370.69, 0.000, 0.000, 0.000, 17:51:24.563
177, -487.44, -34.88, 285.03, -3320.47, 0.000, 0.000, 0.000, 17:51:24.578
178, -441.60, -12.36, 277.35, -3472.83, 0.000, 0.000, 0.000, 17:51:24.578
179, -461.21, -26.64, 266.02, -3457.95, 0.000, 0.000, 0.000, 17:51:24.579
180, -510.09, -59.38, 265.45, -3313.21, 0.000, 0.000, 0.000, 17:51:24.579
181, -491.30, -42.27, 295.03, -3356.23, 0.000, 0.000, 0.000, 17:51:24.593
182, -446.13, -12.57, 296.85, -3490.10, 0.000, 0.000, 0.000, 17:51:24.593
183, -462.59, -31.61, 256.41, -3377.16, 0.000, 0.000, 0.000, 17:51:24.608
184, -511.28, -61.01, 267.60, -3313.63, 0.000, 0.000, 0.000, 17:51:24.608
185, -498.89, -47.12, 293.23, -3355.42, 0.000, 0.000, 0.000, 17:51:24.609
186, -456.37, -18.78, 288.36, -3458.35, 0.000, 0.000, 0.000, 17:51:24.609
187, -469.78, -30.12, 254.79, -3454.16, 0.000, 0.000, 0.000, 17:51:24.638
188, -521.97, -59.07, 274.47, -3373.36, 0.000, 0.000, 0.000, 17:51:24.638
189, -495.35, -38.16, 290.57, -3322.72, 0.000, 0.000, 0.000, 17:51:24.638
190, -445.57, -10.02, 285.92, -3485.46, 0.000, 0.000, 0.000, 17:51:24.638
191, -472.41, -34.16, 260.84, -3429.45, 0.000, 0.000, 0.000, 17:51:24.639
192, -508.08, -56.89, 272.93, -3293.94, 0.000, 0.000, 0.000, 17:51:24.639
193, -492.13, -41.66, 296.23, -3345.31, 0.000, 0.000, 0.000, 17:51:24.653
194, -463.39, -21.01, 299.35, -3528.59, 0.000, 0.000, 0.000, 17:51:24.653
195, -460.32, -24.40, 266.23, -3396.28, 0.000, 0.000, 0.000, 17:51:24.668
196, -514.76, -60.14, 270.34, -3305.68, 0.000, 0.000, 0.000, 17:51:24.668
197, -496.15, -40.18, 291.57, -3336.21, 0.000, 0.000, 0.000, 17:51:24.668
198, -445.95, -16.14, 283.65, -3439.14, 0.000, 0.000, 0.000, 17:51:24.669
199, -460.70, -29.80, 262.72, -3437.30, 0.000, 0.000, 0.000, 17:51:24.683
200, -517.65, -65.97, 277.00, -3346.09, 0.000, 0.000, 0.000, 17:51:24.683
0, -495.98, -40.92, 288.68, -3329.61, 0.000, 0.000, 0.000, 17:51:24.684
1, -449.94, -15.14, 287.22, -3471.46, 0.000, 0.000, 0.000, 17:51:24.698
2, -468.76, -28.76, 275.09, -3468.82, 0.000, 0.000, 0.000, 17:51:24.698
3, -501.72, -53.51, 277.09, -3263.21, 0.000, 0.000, 0.000, 17:51:24.713
4, -494.58, -45.74, 291.83, -3359.71, 0.000, 0.000, 0.000, 17:51:24.713
5, -447.17, -16.48, 291.93, -3474.39, 0.000, 0.000, 0.000, 17:51:24.713
6, -464.64, -33.00, 266.77, -3437.20, 0.000, 0.000, 0.000, 17:51:24.713
7, -520.93, -67.52, 271.02, -3355.61, 0.000, 0.000, 0.000, 17:51:24.728
8, -509.83, -45.86, 292.01, -3414.28, 0.000, 0.000, 0.000, 17:51:24.728
9, -438.81, -9.43, 285.13, -3434.00, 0.000, 0.000, 0.000, 17:51:24.743
10, -462.80, -31.16, 265.62, -3436.09, 0.000, 0.000, 0.000, 17:51:24.743
11, -510.37, -58.09, 266.53, -3320.32, 0.000, 0.000, 0.000, 17:51:24.744
12, -492.05, -42.72, 288.31, -3338.83, 0.000, 0.000, 0.000, 17:51:24.744
13, -447.39, -12.24, 280.98, -3480.21, 0.000, 0.000, 0.000, 17:51:24.758
14, -468.53, -32.32, 265.38, -3469.97, 0.000, 0.000, 0.000, 17:51:24.758
15, -502.01, -54.07, 267.48, -3245.25, 0.000, 0.000, 0.000, 17:51:24.773
16, -494.00, -37.82, 286.45, -3332.03, 0.000, 0.000, 0.000, 17:51:24.773
17, -453.98, -19.64, 274.67, -3519.19, 0.000, 0.000, 0.000, 17:51:24.774
18, -463.29, -30.76, 256.74, -3437.07, 0.000, 0.000, 0.000, 17:51:24.774
19, -518.41, -60.54, 268.50, -3289.26, 0.000, 0.000, 0.000, 17:51:24.788
20, -504.18, -43.38, 285.65, -3410.61, 0.000, 0.000, 0.000, 17:51:24.788
21, -441.90, -17.33, 276.88, -3457.86, 0.000, 0.000, 0.000, 17:51:24.803
22, -454.44, -28.05, 257.97, -3454.90, 0.000, 0.000, 0.000, 17:51:24.803
23, -516.73, -57.19, 268.10, -3353.33, 0.000, 0.000, 0.000, 17:51:24.803
24, -494.97, -42.47, 298.56, -3342.11, 0.000, 0.000, 0.000, 17:51:24.803
25, -449.96, -15.28, 287.96, -3478.05, 0.000, 0.000, 0.000, 17:51:24.818
