%OpenBCI Raw EEG Data
%
%Sample Rate = 200.0 Hz
%First Column = SampleIndex
%Last Column = Timestamp 
%Other Columns = EEG data in microvolts followed by Accel Data (in G) interleaved with Aux Data
0, -139.20, 59.12, 270.64, -3223.66, 0.000, 0.000, 0.000, 18:39:23.803
1, -107.04, 69.69, 275.43, -3177.39, 0.000, 0.000, 0.000, 18:39:23.833
2, -112.69, 88.39, 286.92, -3273.02, 0.000, 0.000, 0.000, 18:39:23.833
3, -136.61, 83.56, 295.51, -3274.68, 0.000, 0.000, 0.000, 18:39:23.834
4, -132.21, 56.71, 278.88, -3225.64, 0.000, 0.000, 0.000, 18:39:23.834
5, -116.65, 59.00, 266.22, -3185.85, 0.000, 0.000, 0.000, 18:39:23.834
6, -127.80, 69.04, 274.83, -3257.54, 0.000, 0.000, 0.000, 18:39:23.834
7, -129.11, 72.22, 286.52, -3318.30, 0.000, 0.000, 0.000, 18:39:23.848
8, -105.65, 64.81, 269.83, -3325.59, 0.000, 0.000, 0.000, 18:39:23.848
9, -117.99, 56.00, 273.78, -3150.51, 0.000, 0.000, 0.000, 18:39:23.863
10, -124.53, 68.63, 280.78, -3235.92, 0.000, 0.000, 0.000, 18:39:23.863
11, -136.73, 68.75, 282.89, -3322.52, 0.000, 0.000, 0.000, 18:39:23.863
12, -125.73, 57.12, 283.16, -3249.33, 0.000, 0.000, 0.000, 18:39:23.863
13, -94.96, 70.59, 287.36, -3185.76, 0.000, 0.000, 0.000, 18:39:23.881
14, -103.53, 80.07, 278.39, -3316.83, 0.000, 0.000, 0.000, 18:39:23.881
15, -123.29, 78.33, 296.87, -3311.69, 0.000, 0.000, 0.000, 18:39:23.893
16, -123.64, 62.63, 278.74, -3237.64, 0.000, 0.000, 0.000, 18:39:23.893
17, -99.62, 65.00, 274.07, -3203.67, 0.000, 0.000, 0.000, 18:39:23.893
18, -123.07, 74.46, 284.69, -3234.12, 0.000, 0.000, 0.000, 18:39:23.893
19, -135.75, 68.97, 288.67, -3286.56, 0.000, 0.000, 0.000, 18:39:23.908
20, -116.05, 63.60, 280.09, -3243.04, 0.000, 0.000, 0.000, 18:39:23.908
21, -110.79, 65.15, 279.42, -3168.52, 0.000, 0.000, 0.000, 18:39:23.923
22, -117.92, 78.05, 283.13, -3242.32, 0.000, 0.000, 0.000, 18:39:23.923
23, -135.05, 75.13, 286.26, -3308.97, 0.000, 0.000, 0.000, 18:39:23.924
24, -124.23, 63.08, 288.63, -3182.94, 0.000, 0.000, 0.000, 18:39:23.924
25, -108.75, 58.52, 276.07, -3184.92, 0.000, 0.000, 0.000, 18:39:23.938
26, -107.85, 81.57, 280.39, -3310.30, 0.000, 0.000, 0.000, 18:39:23.938
27, -133.26, 72.33, 289.44, -3307.04, 0.000, 0.000, 0.000, 18:39:23.953
28, -128.36, 55.74, 277.81, -3236.44, 0.000, 0.000, 0.000, 18:39:23.953
29, -108.81, 65.65, 268.68, -3215.51, 0.000, 0.000, 0.000, 18:39:23.953
30, -125.47, 79.87, 285.49, -3229.58, 0.000, 0.000, 0.000, 18:39:23.953
31, -142.80, 65.53, 289.24, -3272.15, 0.000, 0.000, 0.000, 18:39:23.968
32, -119.37, 59.19, 278.26, -3251.75, 0.000, 0.000, 0.000, 18:39:23.968
33, -104.71, 73.37, 281.60, -3142.60, 0.000, 0.000, 0.000, 18:39:23.983
34, -117.09, 87.37, 285.78, -3238.39, 0.000, 0.000, 0.000, 18:39:23.983
35, -130.20, 81.40, 286.79, -3305.97, 0.000, 0.000, 0.000, 18:39:23.983
36, -134.39, 58.62, 281.00, -3195.68, 0.000, 0.000, 0.000, 18:39:23.984
37, -106.35, 69.00, 277.74, -3182.48, 0.000, 0.000, 0.000, 18:39:23.998
38, -102.65, 81.05, 275.54, -3307.49, 0.000, 0.000, 0.000, 18:39:23.998
39, -129.41, 76.93, 293.46, -3280.02, 0.000, 0.000, 0.000, 18:39:24.013
40, -118.88, 64.89, 288.64, -3214.92, 0.000, 0.000, 0.000, 18:39:24.013
41, -98.04, 61.99, 271.25, -3210.00, 0.000, 0.000, 0.000, 18:39:24.013
42, -106.54, 80.39, 283.01, -3248.70, 0.000, 0.000, 0.000, 18:39:24.013
43, -123.60, 75.63, 291.52, -3309.51, 0.000, 0.000, 0.000, 18:39:24.028
44, -98.95, 72.59, 281.95, -3268.28, 0.000, 0.000, 0.000, 18:39:24.028
45, -97.67, 71.70, 284.40, -3159.17, 0.000, 0.000, 0.000, 18:39:24.043
46, -111.97, 80.05, 284.28, -3265.81, 0.000, 0.000, 0.000, 18:39:24.043
47, -131.41, 74.81, 284.17, -3305.09, 0.000, 0.000, 0.000, 18:39:24.043
48, -129.16, 61.15, 279.59, -3206.56, 0.000, 0.000, 0.000, 18:39:24.043
49, -112.15, 59.78, 268.13, -3206.29, 0.000, 0.000, 0.000, 18:39:24.058
50, -100.72, 91.00, 279.50, -3291.01, 0.000, 0.000, 0.000, 18:39:24.058
51, -139.73, 79.55, 287.17, -3286.58, 0.000, 0.000, 0.000, 18:39:24.073
52, -127.89, 65.74, 283.16, -3199.84, 0.000, 0.000, 0.000, 18:39:24.073
53, -111.17, 67.09, 267.87, -3198.37, 0.000, 0.000, 0.000, 18:39:24.073
54, -128.66, 76.94, 278.28, -3237.94, 0.000, 0.000, 0.000, 18:39:24.074
55, -136.76, 75.40, 296.47, -3269.20, 0.000, 0.000, 0.000, 18:39:24.088
56, -109.35, 71.03, 283.65, -3249.12, 0.000, 0.000, 0.000, 18:39:24.088
57, -111.64, 77.86, 279.00, -3152.03, 0.000, 0.000, 0.000, 18:39:24.103
58, -118.83, 91.66, 281.99, -3230.74, 0.000, 0.000, 0.000, 18:39:24.103
59, -123.73, 89.24, 295.97, -3312.71, 0.000, 0.000, 0.000, 18:39:24.103
60, -121.18, 74.40, 285.95, -3204.41, 0.000, 0.000, 0.000, 18:39:24.104
61, -101.30, 71.58, 279.12, -3182.10, 0.000, 0.000, 0.000, 18:39:24.118
62, -102.49, 93.28, 279.62, -3266.48, 0.000, 0.000, 0.000, 18:39:24.118
63, -136.16, 79.15, 295.02, -3268.02, 0.000, 0.000, 0.000, 18:39:24.148
64, -118.39, 71.71, 295.64, -3185.45, 0.000, 0.000, 0.000, 18:39:24.148
65, -105.11, 65.96, 278.88, -3161.16, 0.000, 0.000, 0.000, 18:39:24.148
66, -125.70, 77.54, 290.85, -3198.09, 0.000, 0.000, 0.000, 18:39:24.148
67, -137.70, 75.08, 289.23, -3285.38, 0.000, 0.000, 0.000, 18:39:24.149
68, -118.59, 72.01, 303.35, -3201.00, 0.000, 0.000, 0.000, 18:39:24.149
69, -102.63, 70.05, 284.07, -3181.63, 0.000, 0.000, 0.000, 18:39:24.150
70, -107.15, 81.29, 289.94, -3266.80, 0.000, 0.000, 0.000, 18:39:24.150
71, -99.08, 84.90, 278.76, -3417.63, 0.000, 0.000, 0.000, 18:39:24.163
72, -138.11, 59.05, 288.88, -3202.07, 0.000, 0.000, 0.000, 18:39:24.163
73, -105.22, 67.53, 280.61, -3161.14, 0.000, 0.000, 0.000, 18:39:24.178
74, -106.44, 87.31, 288.45, -3284.77, 0.000, 0.000, 0.000, 18:39:24.178
75, -138.53, 81.64, 293.54, -3252.79, 0.000, 0.000, 0.000, 18:39:24.193
76, -124.17, 72.11, 293.97, -3167.65, 0.000, 0.000, 0.000, 18:39:24.193
77, -107.11, 70.78, 274.93, -3171.13, 0.000, 0.000, 0.000, 18:39:24.193
78, -119.56, 77.55, 290.65, -3203.29, 0.000, 0.000, 0.000, 18:39:24.193
79, -146.63, 70.25, 286.64, -3267.40, 0.000, 0.000, 0.000, 18:39:24.208
80, -129.29, 58.82, 274.08, -3228.04, 0.000, 0.000, 0.000, 18:39:24.208
81, -118.81, 62.56, 273.64, -3168.08, 0.000, 0.000, 0.000, 18:39:24.223
82, -122.23, 78.81, 284.30, -3243.71, 0.000, 0.000, 0.000, 18:39:24.223
83, -141.36, 70.06, 281.42, -3292.65, 0.000, 0.000, 0.000, 18:39:24.223
84, -140.62, 56.39, 279.94, -3189.87, 0.000, 0.000, 0.000, 18:39:24.224
85, -128.40, 50.33, 263.43, -3186.87, 0.000, 0.000, 0.000, 18:39:24.238
86, -110.41, 76.39, 276.71, -3316.65, 0.000, 0.000, 0.000, 18:39:24.238
87, -147.49, 66.07, 278.04, -3323.08, 0.000, 0.000, 0.000, 18:39:24.253
88, -134.93, 49.58, 267.28, -3236.12, 0.000, 0.000, 0.000, 18:39:24.253
89, -110.30, 63.66, 268.11, -3189.35, 0.000, 0.000, 0.000, 18:39:24.253
90, -127.04, 71.50, 279.24, -3249.49, 0.000, 0.000, 0.000, 18:39:24.254
91, -136.32, 71.02, 291.76, -3289.39, 0.000, 0.000, 0.000, 18:39:24.268
92, -134.82, 45.42, 265.91, -3259.83, 0.000, 0.000, 0.000, 18:39:24.268
93, -109.67, 57.83, 274.93, -3184.12, 0.000, 0.000, 0.000, 18:39:24.283
94, -108.63, 85.13, 289.13, -3270.23, 0.000, 0.000, 0.000, 18:39:24.283
95, -128.81, 77.47, 287.24, -3312.12, 0.000, 0.000, 0.000, 18:39:24.283
96, -121.62, 67.61, 285.34, -3230.67, 0.000, 0.000, 0.000, 18:39:24.284
97, -106.32, 68.54, 276.64, -3189.13, 0.000, 0.000, 0.000, 18:39:24.298
98, -109.30, 83.50, 276.88, -3261.33, 0.000, 0.000, 0.000, 18:39:24.298
99, -141.73, 73.97, 293.73, -3248.03, 0.000, 0.000, 0.000, 18:39:24.313
100, -131.96, 54.16, 280.26, -3207.63, 0.000, 0.000, 0.000, 18:39:24.313
101, -107.99, 67.70, 271.57, -3194.74, 0.000, 0.000, 0.000, 18:39:24.313
102, -122.67, 77.46, 281.63, -3252.69, 0.000, 0.000, 0.000, 18:39:24.314
103, -127.31, 77.62, 290.66, -3308.92, 0.000, 0.000, 0.000, 18:39:24.328
104, -109.22, 72.34, 280.11, -3273.16, 0.000, 0.000, 0.000, 18:39:24.328
105, -105.72, 64.53, 275.51, -3173.87, 0.000, 0.000, 0.000, 18:39:24.343
106, -114.40, 82.15, 283.55, -3243.01, 0.000, 0.000, 0.000, 18:39:24.343
107, -132.92, 73.98, 281.00, -3296.08, 0.000, 0.000, 0.000, 18:39:24.344
108, -126.44, 63.80, 279.12, -3186.87, 0.000, 0.000, 0.000, 18:39:24.344
109, -113.63, 61.28, 270.79, -3189.62, 0.000, 0.000, 0.000, 18:39:24.358
110, -116.90, 74.86, 273.79, -3285.53, 0.000, 0.000, 0.000, 18:39:24.358
111, -146.24, 67.71, 283.98, -3264.01, 0.000, 0.000, 0.000, 18:39:24.373
112, -133.44, 56.18, 272.42, -3212.42, 0.000, 0.000, 0.000, 18:39:24.373
113, -114.82, 61.80, 261.78, -3195.35, 0.000, 0.000, 0.000, 18:39:24.373
114, -120.91, 75.03, 282.64, -3250.57, 0.000, 0.000, 0.000, 18:39:24.374
115, -129.90, 80.47, 295.62, -3273.29, 0.000, 0.000, 0.000, 18:39:24.388
116, -123.26, 60.59, 271.34, -3239.61, 0.000, 0.000, 0.000, 18:39:24.388
117, -114.84, 62.78, 277.53, -3185.06, 0.000, 0.000, 0.000, 18:39:24.403
118, -118.68, 78.73, 281.03, -3256.08, 0.000, 0.000, 0.000, 18:39:24.403
119, -128.61, 81.79, 281.12, -3312.08, 0.000, 0.000, 0.000, 18:39:24.403
120, -134.97, 57.93, 274.36, -3209.05, 0.000, 0.000, 0.000, 18:39:24.403
121, -114.43, 58.08, 265.67, -3204.75, 0.000, 0.000, 0.000, 18:39:24.418
122, -118.70, 71.86, 263.52, -3315.77, 0.000, 0.000, 0.000, 18:39:24.418
123, -145.14, 73.97, 280.28, -3293.79, 0.000, 0.000, 0.000, 18:39:24.433
124, -135.13, 52.74, 275.86, -3213.98, 0.000, 0.000, 0.000, 18:39:24.433
125, -109.30, 63.03, 270.57, -3189.18, 0.000, 0.000, 0.000, 18:39:24.434
126, -123.26, 85.93, 283.67, -3209.56, 0.000, 0.000, 0.000, 18:39:24.434
127, -137.17, 78.72, 287.99, -3293.95, 0.000, 0.000, 0.000, 18:39:24.448
128, -125.25, 64.00, 272.00, -3256.84, 0.000, 0.000, 0.000, 18:39:24.448
129, -116.26, 63.41, 269.51, -3187.81, 0.000, 0.000, 0.000, 18:39:24.478
130, -126.66, 69.58, 272.37, -3268.94, 0.000, 0.000, 0.000, 18:39:24.478
131, -139.64, 70.54, 277.96, -3325.29, 0.000, 0.000, 0.000, 18:39:24.478
132, -131.65, 64.69, 281.61, -3205.99, 0.000, 0.000, 0.000, 18:39:24.479
133, -116.21, 63.76, 270.28, -3191.25, 0.000, 0.000, 0.000, 18:39:24.479
134, -127.00, 77.54, 275.69, -3237.12, 0.000, 0.000, 0.000, 18:39:24.479
135, -135.37, 83.01, 296.29, -3255.35, 0.000, 0.000, 0.000, 18:39:24.480
136, -116.98, 68.46, 292.85, -3208.15, 0.000, 0.000, 0.000, 18:39:24.480
137, -68.77, 75.88, 264.56, -3307.67, 0.000, 0.000, 0.000, 18:39:24.493
138, -123.32, 82.69, 290.80, -3235.69, 0.000, 0.000, 0.000, 18:39:24.493
139, -133.30, 75.02, 292.87, -3284.87, 0.000, 0.000, 0.000, 18:39:24.508
140, -118.30, 62.39, 282.61, -3241.35, 0.000, 0.000, 0.000, 18:39:24.508
141, -108.72, 63.40, 281.00, -3166.05, 0.000, 0.000, 0.000, 18:39:24.523
142, -108.00, 82.33, 293.18, -3249.66, 0.000, 0.000, 0.000, 18:39:24.523
143, -117.82, 81.38, 291.00, -3308.44, 0.000, 0.000, 0.000, 18:39:24.525
144, -120.30, 67.18, 284.19, -3204.36, 0.000, 0.000, 0.000, 18:39:24.525
145, -110.92, 61.50, 273.82, -3171.56, 0.000, 0.000, 0.000, 18:39:24.538
146, -109.69, 85.65, 284.22, -3281.47, 0.000, 0.000, 0.000, 18:39:24.538
147, -127.76, 84.91, 301.69, -3238.90, 0.000, 0.000, 0.000, 18:39:24.553
148, -113.68, 71.44, 291.50, -3194.98, 0.000, 0.000, 0.000, 18:39:24.553
149, -100.46, 76.30, 281.39, -3195.64, 0.000, 0.000, 0.000, 18:39:24.553
150, -120.46, 76.08, 285.39, -3238.40, 0.000, 0.000, 0.000, 18:39:24.554
151, -132.64, 76.62, 291.52, -3287.20, 0.000, 0.000, 0.000, 18:39:24.568
152, -112.48, 68.67, 279.83, -3222.19, 0.000, 0.000, 0.000, 18:39:24.568
153, -103.62, 67.32, 282.76, -3173.95, 0.000, 0.000, 0.000, 18:39:24.583
154, -109.70, 82.48, 291.69, -3262.34, 0.000, 0.000, 0.000, 18:39:24.583
155, -126.41, 79.65, 287.61, -3298.93, 0.000, 0.000, 0.000, 18:39:24.583
156, -125.91, 61.43, 287.24, -3211.76, 0.000, 0.000, 0.000, 18:39:24.583
157, -104.24, 63.62, 270.38, -3208.71, 0.000, 0.000, 0.000, 18:39:24.598
158, -114.22, 74.31, 272.44, -3273.83, 0.000, 0.000, 0.000, 18:39:24.598
159, -140.11, 60.99, 290.16, -3271.82, 0.000, 0.000, 0.000, 18:39:24.613
160, -130.43, 58.40, 281.59, -3175.58, 0.000, 0.000, 0.000, 18:39:24.613
161, -110.31, 66.22, 275.26, -3172.70, 0.000, 0.000, 0.000, 18:39:24.614
162, -126.17, 77.24, 288.50, -3218.72, 0.000, 0.000, 0.000, 18:39:24.614
163, -142.63, 61.92, 287.49, -3294.57, 0.000, 0.000, 0.000, 18:39:24.628
164, -118.33, 57.83, 277.85, -3231.70, 0.000, 0.000, 0.000, 18:39:24.628
165, -123.79, 52.96, 264.57, -3166.39, 0.000, 0.000, 0.000, 18:39:24.643
166, -124.37, 74.15, 282.83, -3246.84, 0.000, 0.000, 0.000, 18:39:24.643
167, -135.47, 71.82, 283.65, -3320.18, 0.000, 0.000, 0.000, 18:39:24.643
168, -138.21, 57.52, 274.04, -3197.26, 0.000, 0.000, 0.000, 18:39:24.644
169, -115.42, 56.58, 268.78, -3198.55, 0.000, 0.000, 0.000, 18:39:24.658
170, -110.98, 77.24, 273.69, -3303.28, 0.000, 0.000, 0.000, 18:39:24.658
171, -148.55, 75.62, 285.77, -3264.83, 0.000, 0.000, 0.000, 18:39:24.673
172, -128.69, 59.16, 279.38, -3199.99, 0.000, 0.000, 0.000, 18:39:24.673
173, -108.34, 65.95, 274.07, -3198.14, 0.000, 0.000, 0.000, 18:39:24.673
174, -118.45, 81.12, 288.99, -3252.01, 0.000, 0.000, 0.000, 18:39:24.674
175, -136.78, 75.11, 281.26, -3312.27, 0.000, 0.000, 0.000, 18:39:24.688
176, -119.28, 62.23, 264.92, -3263.15, 0.000, 0.000, 0.000, 18:39:24.688
177, -111.18, 68.49, 270.10, -3172.67, 0.000, 0.000, 0.000, 18:39:24.703
178, -118.84, 79.58, 282.46, -3261.08, 0.000, 0.000, 0.000, 18:39:24.703
179, -130.13, 80.27, 283.43, -3311.28, 0.000, 0.000, 0.000, 18:39:24.703
180, -134.97, 59.22, 270.49, -3217.88, 0.000, 0.000, 0.000, 18:39:24.703
181, -111.83, 67.79, 271.97, -3186.36, 0.000, 0.000, 0.000, 18:39:24.718
182, -106.69, 89.61, 280.11, -3308.19, 0.000, 0.000, 0.000, 18:39:24.718
183, -132.62, 83.76, 292.25, -3285.38, 0.000, 0.000, 0.000, 18:39:24.733
184, -123.08, 65.71, 283.73, -3214.45, 0.000, 0.000, 0.000, 18:39:24.733
185, -97.69, 74.37, 277.39, -3200.09, 0.000, 0.000, 0.000, 18:39:24.733
186, -112.93, 87.52, 289.62, -3247.89, 0.000, 0.000, 0.000, 18:39:24.733
187, -132.15, 73.26, 287.25, -3304.78, 0.000, 0.000, 0.000, 18:39:24.748
188, -113.06, 66.11, 275.08, -3267.91, 0.000, 0.000, 0.000, 18:39:24.748
189, -106.36, 66.21, 275.32, -3183.86, 0.000, 0.000, 0.000, 18:39:24.763
190, -118.34, 76.24, 281.59, -3283.43, 0.000, 0.000, 0.000, 18:39:24.763
191, -138.04, 72.80, 286.65, -3298.66, 0.000, 0.000, 0.000, 18:39:24.763
192, -143.21, 45.05, 270.69, -3203.04, 0.000, 0.000, 0.000, 18:39:24.763
193, -99.56, 74.02, 282.66, -3164.92, 0.000, 0.000, 0.000, 18:39:24.793
194, -113.49, 79.93, 284.22, -3289.14, 0.000, 0.000, 0.000, 18:39:24.793
195, -150.14, 66.87, 281.08, -3266.03, 0.000, 0.000, 0.000, 18:39:24.793
196, -138.81, 59.01, 280.61, -3183.89, 0.000, 0.000, 0.000, 18:39:24.793
197, -117.20, 60.45, 270.85, -3178.99, 0.000, 0.000, 0.000, 18:39:24.794
198, -127.74, 78.00, 280.20, -3251.71, 0.000, 0.000, 0.000, 18:39:24.794
199, -139.10, 69.47, 288.70, -3290.26, 0.000, 0.000, 0.000, 18:39:24.808
200, -106.95, 60.99, 270.09, -3292.09, 0.000, 0.000, 0.000, 18:39:24.808
0, -118.44, 57.63, 274.59, -3210.54, 0.000, 0.000, 0.000, 18:39:24.809
1, -113.92, 82.06, 280.63, -3288.52, 0.000, 0.000, 0.000, 18:39:24.823
2, -128.49, 77.18, 288.68, -3306.73, 0.000, 0.000, 0.000, 18:39:24.823
3, -123.88, 69.67, 291.92, -3163.60, 0.000, 0.000, 0.000, 18:39:24.838
4, -114.55, 64.65, 277.22, -3161.28, 0.000, 0.000, 0.000, 18:39:24.838
5, -116.39, 86.58, 287.79, -3238.27, 0.000, 0.000, 0.000, 18:39:24.838
6, -145.90, 68.15, 290.42, -3270.59, 0.000, 0.000, 0.000, 18:39:24.838
7, -133.66, 61.05, 280.96, -3182.05, 0.000, 0.000, 0.000, 18:39:24.856
8, -98.39, 76.97, 277.71, -3214.85, 0.000, 0.000, 0.000, 18:39:24.856
9, -136.76, 72.71, 273.03, -3262.31, 0.000, 0.000, 0.000, 18:39:24.868
10, -142.59, 77.30, 287.72, -3273.18, 0.000, 0.000, 0.000, 18:39:24.868
11, -122.72, 67.89, 279.75, -3209.62, 0.000, 0.000, 0.000, 18:39:24.869
12, -114.80, 75.33, 277.61, -3158.67, 0.000, 0.000, 0.000, 18:39:24.869
13, -123.61, 76.37, 285.57, -3264.06, 0.000, 0.000, 0.000, 18:39:24.883
14, -133.02, 82.36, 280.80, -3315.67, 0.000, 0.000, 0.000, 18:39:24.883
15, -130.55, 68.93, 279.73, -3183.43, 0.000, 0.000, 0.000, 18:39:24.898
16, -105.96, 69.49, 276.33, -3192.95, 0.000, 0.000, 0.000, 18:39:24.898
17, -118.87, 79.98, 272.27, -3293.71, 0.000, 0.000, 0.000, 18:39:24.899
18, -137.05, 76.37, 281.90, -3309.59, 0.000, 0.000, 0.000, 18:39:24.899
19, -127.35, 58.19, 270.10, -3235.94, 0.000, 0.000, 0.000, 18:39:24.913
20, -94.28, 75.39, 271.46, -3227.16, 0.000, 0.000, 0.000, 18:39:24.913
21, -121.81, 83.62, 285.12, -3239.16, 0.000, 0.000, 0.000, 18:39:24.928
22, -139.21, 78.02, 289.72, -3278.85, 0.000, 0.000, 0.000, 18:39:24.928
23, -123.49, 65.88, 273.74, -3233.40, 0.000, 0.000, 0.000, 18:39:24.929
24, -108.83, 73.49, 277.45, -3182.20, 0.000, 0.000, 0.000, 18:39:24.929
25, -114.45, 77.72, 282.19, -3297.02, 0.000, 0.000, 0.000, 18:39:24.943
26, -124.29, 79.51, 278.82, -3344.08, 0.000, 0.000, 0.000, 18:39:24.943
27, -121.27, 66.46, 280.26, -3222.35, 0.000, 0.000, 0.000, 18:39:24.958
28, -104.86, 63.73, 273.73, -3204.97, 0.000, 0.000, 0.000, 18:39:24.958
29, -110.25, 84.71, 281.69, -3308.79, 0.000, 0.000, 0.000, 18:39:24.958
30, -135.22, 83.57, 289.94, -3280.46, 0.000, 0.000, 0.000, 18:39:24.958
31, -124.12, 61.93, 278.23, -3239.41, 0.000, 0.000, 0.000, 18:39:24.973
32, -95.38, 75.72, 270.43, -3260.06, 0.000, 0.000, 0.000, 18:39:24.973
33, -120.19, 83.81, 283.68, -3259.71, 0.000, 0.000, 0.000, 18:39:24.988
34, -121.49, 90.59, 302.46, -3276.77, 0.000, 0.000, 0.000, 18:39:24.988
35, -115.36, 65.15, 280.60, -3230.71, 0.000, 0.000, 0.000, 18:39:24.989
36, -116.00, 63.62, 275.61, -3180.11, 0.000, 0.000, 0.000, 18:39:24.989
37, -121.71, 83.73, 286.31, -3274.77, 0.000, 0.000, 0.000, 18:39:25.003
38, -125.83, 84.29, 286.55, -3331.14, 0.000, 0.000, 0.000, 18:39:25.003
39, -125.26, 60.61, 282.10, -3193.77, 0.000, 0.000, 0.000, 18:39:25.018
40, -99.46, 80.88, 283.37, -3189.95, 0.000, 0.000, 0.000, 18:39:25.018
41, -110.01, 90.17, 290.40, -3282.77, 0.000, 0.000, 0.000, 18:39:25.018
42, -128.76, 79.96, 302.45, -3271.10, 0.000, 0.000, 0.000, 18:39:25.019
43, -113.09, 68.43, 295.68, -3201.44, 0.000, 0.000, 0.000, 18:39:25.033
44, -92.73, 77.51, 279.56, -3220.05, 0.000, 0.000, 0.000, 18:39:25.033
45, -118.18, 83.39, 292.87, -3250.32, 0.000, 0.000, 0.000, 18:39:25.048
46, -122.56, 92.94, 309.55, -3248.08, 0.000, 0.000, 0.000, 18:39:25.048
47, -120.91, 65.53, 287.57, -3193.45, 0.000, 0.000, 0.000, 18:39:25.049
48, -113.86, 67.36, 280.36, -3151.34, 0.000, 0.000, 0.000, 18:39:25.049
49, -127.43, 80.70, 288.86, -3241.89, 0.000, 0.000, 0.000, 18:39:25.063
50, -126.80, 76.80, 290.48, -3319.15, 0.000, 0.000, 0.000, 18:39:25.063
51, -119.79, 69.03, 293.38, -3173.00, 0.000, 0.000, 0.000, 18:39:25.078
52, -110.79, 63.04, 282.81, -3181.91, 0.000, 0.000, 0.000, 18:39:25.078
53, -119.34, 77.01, 280.41, -3285.58, 0.000, 0.000, 0.000, 18:39:25.078
54, -133.47, 77.64, 296.93, -3284.01, 0.000, 0.000, 0.000, 18:39:25.079
55, -120.78, 66.16, 280.44, -3209.86, 0.000, 0.000, 0.000, 18:39:25.108
56, -100.07, 67.90, 269.10, -3216.16, 0.000, 0.000, 0.000, 18:39:25.108
57, -122.38, 72.92, 286.13, -3277.57, 0.000, 0.000, 0.000, 18:39:25.108
58, -139.38, 73.69, 288.21, -3273.94, 0.000, 0.000, 0.000, 18:39:25.108
59, -123.94, 61.42, 281.97, -3202.12, 0.000, 0.000, 0.000, 18:39:25.109
60, -116.36, 60.49, 268.66, -3194.14, 0.000, 0.000, 0.000, 18:39:25.109
61, -116.12, 80.74, 282.63, -3291.80, 0.000, 0.000, 0.000, 18:39:25.123
62, -120.50, 78.34, 272.76, -3376.65, 0.000, 0.000, 0.000, 18:39:25.123
63, -127.18, 58.75, 279.24, -3201.40, 0.000, 0.000, 0.000, 18:39:25.138
64, -104.88, 62.26, 273.07, -3193.35, 0.000, 0.000, 0.000, 18:39:25.138
65, -122.76, 77.31, 277.70, -3290.48, 0.000, 0.000, 0.000, 18:39:25.139
66, -138.79, 76.38, 295.21, -3259.05, 0.000, 0.000, 0.000, 18:39:25.139
67, -125.69, 62.12, 281.30, -3213.14, 0.000, 0.000, 0.000, 18:39:25.153
68, -97.33, 79.15, 278.58, -3195.23, 0.000, 0.000, 0.000, 18:39:25.153
69, -128.28, 80.65, 283.38, -3257.83, 0.000, 0.000, 0.000, 18:39:25.168
70, -141.62, 77.28, 285.28, -3275.77, 0.000, 0.000, 0.000, 18:39:25.168
71, -122.21, 68.53, 278.91, -3210.10, 0.000, 0.000, 0.000, 18:39:25.168
72, -120.51, 62.65, 274.08, -3163.78, 0.000, 0.000, 0.000, 18:39:25.169
73, -124.93, 80.65, 284.54, -3260.78, 0.000, 0.000, 0.000, 18:39:25.183
74, -123.34, 87.61, 287.06, -3345.16, 0.000, 0.000, 0.000, 18:39:25.183
75, -123.44, 69.22, 284.14, -3200.95, 0.000, 0.000, 0.000, 18:39:25.198
76, -107.94, 74.92, 279.09, -3180.25, 0.000, 0.000, 0.000, 18:39:25.198
77, -124.38, 84.04, 279.63, -3253.59, 0.000, 0.000, 0.000, 18:39:25.198
78, -148.30, 70.92, 282.43, -3275.29, 0.000, 0.000, 0.000, 18:39:25.199
79, -126.37, 59.30, 277.68, -3206.90, 0.000, 0.000, 0.000, 18:39:25.213
80, -113.41, 62.42, 258.95, -3229.90, 0.000, 0.000, 0.000, 18:39:25.213
81, -138.44, 69.50, 273.74, -3259.75, 0.000, 0.000, 0.000, 18:39:25.228
82, -152.04, 70.30, 285.79, -3237.01, 0.000, 0.000, 0.000, 18:39:25.228
83, -141.48, 57.76, 270.24, -3197.84, 0.000, 0.000, 0.000, 18:39:25.228
84, -120.42, 60.07, 267.32, -3187.48, 0.000, 0.000, 0.000, 18:39:25.229
85, -128.96, 78.05, 277.03, -3258.72, 0.000, 0.000, 0.000, 18:39:25.243
86, -146.47, 75.79, 277.59, -3303.97, 0.000, 0.000, 0.000, 18:39:25.243
87, -141.85, 51.28, 277.32, -3176.83, 0.000, 0.000, 0.000, 18:39:25.258
88, -122.01, 57.75, 275.92, -3180.21, 0.000, 0.000, 0.000, 18:39:25.258
89, -115.68, 86.71, 290.01, -3265.80, 0.000, 0.000, 0.000, 18:39:25.258
90, -147.31, 66.09, 286.34, -3265.38, 0.000, 0.000, 0.000, 18:39:25.258
91, -126.01, 61.71, 290.68, -3188.31, 0.000, 0.000, 0.000, 18:39:25.273
92, -92.23, 75.31, 285.35, -3189.33, 0.000, 0.000, 0.000, 18:39:25.273
93, -122.81, 82.57, 295.05, -3231.43, 0.000, 0.000, 0.000, 18:39:25.288
94, -132.47, 83.58, 302.01, -3263.52, 0.000, 0.000, 0.000, 18:39:25.288
95, -113.91, 71.20, 287.33, -3206.86, 0.000, 0.000, 0.000, 18:39:25.289
96, -111.71, 64.67, 280.32, -3164.45, 0.000, 0.000, 0.000, 18:39:25.289
97, -117.90, 81.91, 288.30, -3270.97, 0.000, 0.000, 0.000, 18:39:25.303
98, -123.01, 88.98, 290.96, -3305.12, 0.000, 0.000, 0.000, 18:39:25.303
99, -127.77, 66.40, 277.91, -3188.04, 0.000, 0.000, 0.000, 18:39:25.318
100, -109.73, 74.65, 279.36, -3178.69, 0.000, 0.000, 0.000, 18:39:25.318
101, -114.35, 86.82, 285.41, -3286.59, 0.000, 0.000, 0.000, 18:39:25.319
102, -136.00, 76.96, 287.98, -3267.60, 0.000, 0.000, 0.000, 18:39:25.319
103, -116.55, 71.08, 283.23, -3203.32, 0.000, 0.000, 0.000, 18:39:25.333
104, -99.17, 75.06, 269.57, -3219.81, 0.000, 0.000, 0.000, 18:39:25.333
105, -121.73, 87.69, 285.33, -3225.70, 0.000, 0.000, 0.000, 18:39:25.348
106, -130.65, 79.54, 301.19, -3283.93, 0.000, 0.000, 0.000, 18:39:25.348
107, -112.34, 65.37, 284.82, -3226.96, 0.000, 0.000, 0.000, 18:39:25.349
108, -107.58, 63.98, 275.47, -3189.77, 0.000, 0.000, 0.000, 18:39:25.349
109, -112.96, 77.66, 287.44, -3292.32, 0.000, 0.000, 0.000, 18:39:25.363
110, -121.41, 74.37, 279.97, -3367.71, 0.000, 0.000, 0.000, 18:39:25.363
111, -119.29, 63.32, 282.21, -3217.15, 0.000, 0.000, 0.000, 18:39:25.378
112, -102.63, 68.22, 280.52, -3176.39, 0.000, 0.000, 0.000, 18:39:25.378
113, -115.24, 85.10, 285.79, -3274.71, 0.000, 0.000, 0.000, 18:39:25.379
114, -139.19, 73.56, 289.00, -3273.54, 0.000, 0.000, 0.000, 18:39:25.379
115, -122.87, 65.76, 285.81, -3218.27, 0.000, 0.000, 0.000, 18:39:25.393
116, -93.69, 76.75, 278.42, -3217.44, 0.000, 0.000, 0.000, 18:39:25.393
117, -121.87, 81.50, 286.63, -3255.02, 0.000, 0.000, 0.000, 18:39:25.408
118, -130.37, 76.60, 289.07, -3293.82, 0.000, 0.000, 0.000, 18:39:25.408
119, -121.31, 58.33, 274.77, -3234.22, 0.000, 0.000, 0.000, 18:39:25.408
120, -111.37, 63.40, 278.97, -3160.25, 0.000, 0.000, 0.000, 18:39:25.409
121, -118.84, 79.87, 289.67, -3282.81, 0.000, 0.000, 0.000, 18:39:25.438
122, -127.68, 76.14, 285.61, -3312.25, 0.000, 0.000, 0.000, 18:39:25.438
123, -126.15, 55.08, 286.78, -3182.52, 0.000, 0.000, 0.000, 18:39:25.438
124, -111.80, 64.73, 270.45, -3201.49, 0.000, 0.000, 0.000, 18:39:25.438
125, -120.65, 76.79, 284.05, -3267.81, 0.000, 0.000, 0.000, 18:39:25.439
126, -143.03, 74.23, 295.26, -3258.96, 0.000, 0.000, 0.000, 18:39:25.439
127, -122.22, 61.60, 287.31, -3189.94, 0.000, 0.000, 0.000, 18:39:25.453
128, -86.92, 78.21, 272.84, -3245.37, 0.000, 0.000, 0.000, 18:39:25.453
129, -129.87, 78.32, 289.91, -3232.15, 0.000, 0.000, 0.000, 18:39:25.468
130, -126.79, 79.76, 302.66, -3274.73, 0.000, 0.000, 0.000, 18:39:25.468
131, -115.49, 72.39, 286.12, -3193.59, 0.000, 0.000, 0.000, 18:39:25.469
132, -114.78, 71.61, 282.33, -3156.97, 0.000, 0.000, 0.000, 18:39:25.469
133, -123.35, 80.37, 291.47, -3227.78, 0.000, 0.000, 0.000, 18:39:25.483
134, -122.45, 86.18, 302.86, -3291.97, 0.000, 0.000, 0.000, 18:39:25.483
135, -126.45, 62.85, 284.70, -3173.50, 0.000, 0.000, 0.000, 18:39:25.498
136, -109.96, 67.74, 277.26, -3165.92, 0.000, 0.000, 0.000, 18:39:25.498
137, -117.46, 79.97, 283.63, -3298.47, 0.000, 0.000, 0.000, 18:39:25.498
138, -136.58, 77.17, 292.77, -3257.92, 0.000, 0.000, 0.000, 18:39:25.499
139, -126.14, 58.66, 282.74, -3201.90, 0.000, 0.000, 0.000, 18:39:25.513
140, -98.68, 72.54, 275.21, -3209.38, 0.000, 0.000, 0.000, 18:39:25.513
141, -114.78, 88.38, 293.14, -3236.34, 0.000, 0.000, 0.000, 18:39:25.528
142, -136.10, 75.30, 292.84, -3279.91, 0.000, 0.000, 0.000, 18:39:25.528
143, -117.00, 71.02, 279.69, -3228.08, 0.000, 0.000, 0.000, 18:39:25.528
144, -111.89, 68.59, 275.79, -3176.41, 0.000, 0.000, 0.000, 18:39:25.528
145, -118.15, 86.32, 291.59, -3264.95, 0.000, 0.000, 0.000, 18:39:25.543
146, -124.30, 80.58, 280.30, -3346.79, 0.000, 0.000, 0.000, 18:39:25.543
147, -127.04, 67.20, 280.31, -3176.01, 0.000, 0.000, 0.000, 18:39:25.558
148, -109.35, 71.32, 276.67, -3157.83, 0.000, 0.000, 0.000, 18:39:25.558
149, -117.14, 86.20, 282.38, -3284.67, 0.000, 0.000, 0.000, 18:39:25.559
150, -138.95, 75.88, 287.27, -3268.66, 0.000, 0.000, 0.000, 18:39:25.559
151, -128.13, 54.30, 276.61, -3220.00, 0.000, 0.000, 0.000, 18:39:25.573
152, -104.99, 70.34, 266.19, -3234.76, 0.000, 0.000, 0.000, 18:39:25.573
153, -122.45, 83.72, 285.62, -3243.36, 0.000, 0.000, 0.000, 18:39:25.588
154, -126.56, 84.38, 296.39, -3297.16, 0.000, 0.000, 0.000, 18:39:25.588
155, -117.79, 66.61, 278.22, -3210.99, 0.000, 0.000, 0.000, 18:39:25.588
156, -118.37, 66.38, 276.01, -3164.07, 0.000, 0.000, 0.000, 18:39:25.588
157, -125.69, 80.86, 285.68, -3261.71, 0.000, 0.000, 0.000, 18:39:25.603
158, -122.35, 82.61, 292.08, -3304.74, 0.000, 0.000, 0.000, 18:39:25.603
159, -121.61, 64.35, 282.76, -3209.20, 0.000, 0.000, 0.000, 18:39:25.618
160, -102.12, 78.11, 276.50, -3195.75, 0.000, 0.000, 0.000, 18:39:25.618
161, -120.37, 84.72, 277.70, -3284.98, 0.000, 0.000, 0.000, 18:39:25.619
162, -138.67, 76.91, 293.09, -3257.08, 0.000, 0.000, 0.000, 18:39:25.619
163, -114.22, 74.05, 289.51, -3186.81, 0.000, 0.000, 0.000, 18:39:25.633
164, -98.85, 73.95, 274.84, -3232.50, 0.000, 0.000, 0.000, 18:39:25.633
165, -124.28, 88.68, 289.00, -3245.66, 0.000, 0.000, 0.000, 18:39:25.648
166, -142.21, 74.38, 288.95, -3258.72, 0.000, 0.000, 0.000, 18:39:25.648
167, -113.58, 62.08, 278.36, -3231.97, 0.000, 0.000, 0.000, 18:39:25.649
168, -103.87, 71.54, 282.58, -3175.55, 0.000, 0.000, 0.000, 18:39:25.649
169, -114.52, 82.43, 288.26, -3271.58, 0.000, 0.000, 0.000, 18:39:25.663
170, -122.62, 81.37, 288.94, -3323.40, 0.000, 0.000, 0.000, 18:39:25.663
171, -120.07, 60.05, 283.56, -3222.21, 0.000, 0.000, 0.000, 18:39:25.678
172, -110.99, 70.14, 278.71, -3205.98, 0.000, 0.000, 0.000, 18:39:25.678
173, -112.48, 83.63, 280.28, -3289.66, 0.000, 0.000, 0.000, 18:39:25.678
174, -141.83, 64.31, 286.37, -3274.42, 0.000, 0.000, 0.000, 18:39:25.679
175, -118.93, 64.20, 284.60, -3186.09, 0.000, 0.000, 0.000, 18:39:25.693
176, -100.19, 63.19, 266.31, -3239.41, 0.000, 0.000, 0.000, 18:39:25.693
177, -130.97, 77.18, 282.30, -3273.82, 0.000, 0.000, 0.000, 18:39:25.708
178, -138.92, 67.75, 287.65, -3294.55, 0.000, 0.000, 0.000, 18:39:25.708
179, -119.21, 59.85, 272.94, -3233.23, 0.000, 0.000, 0.000, 18:39:25.709
180, -115.13, 66.34, 267.64, -3175.33, 0.000, 0.000, 0.000, 18:39:25.709
181, -113.53, 78.07, 281.16, -3301.77, 0.000, 0.000, 0.000, 18:39:25.723
182, -120.60, 74.67, 281.80, -3356.15, 0.000, 0.000, 0.000, 18:39:25.723
183, -122.60, 64.86, 283.59, -3190.88, 0.000, 0.000, 0.000, 18:39:25.753
184, -103.49, 68.77, 279.98, -3201.41, 0.000, 0.000, 0.000, 18:39:25.753
185, -117.66, 80.87, 284.92, -3285.67, 0.000, 0.000, 0.000, 18:39:25.753
186, -138.94, 71.45, 291.26, -3258.66, 0.000, 0.000, 0.000, 18:39:25.754
187, -116.74, 60.02, 289.09, -3201.55, 0.000, 0.000, 0.000, 18:39:25.754
188, -110.58, 63.65, 273.50, -3188.64, 0.000, 0.000, 0.000, 18:39:25.754
189, -127.88, 76.67, 282.49, -3245.91, 0.000, 0.000, 0.000, 18:39:25.755
190, -152.33, 62.66, 285.17, -3281.00, 0.000, 0.000, 0.000, 18:39:25.755
191, -92.96, 69.89, 262.79, -3318.27, 0.000, 0.000, 0.000, 18:39:25.768
192, -120.33, 70.68, 283.02, -3172.06, 0.000, 0.000, 0.000, 18:39:25.768
193, -131.04, 78.69, 276.27, -3261.07, 0.000, 0.000, 0.000, 18:39:25.783
194, -139.66, 75.93, 277.68, -3318.74, 0.000, 0.000, 0.000, 18:39:25.783
195, -121.05, 66.16, 276.57, -3206.55, 0.000, 0.000, 0.000, 18:39:25.798
196, -107.78, 71.61, 279.52, -3184.02, 0.000, 0.000, 0.000, 18:39:25.798
197, -115.11, 88.41, 288.46, -3289.16, 0.000, 0.000, 0.000, 18:39:25.799
198, -141.72, 78.82, 295.83, -3262.40, 0.000, 0.000, 0.000, 18:39:25.799
199, -127.22, 61.30, 281.98, -3195.53, 0.000, 0.000, 0.000, 18:39:25.813
200, -101.84, 72.17, 277.38, -3220.69, 0.000, 0.000, 0.000, 18:39:25.813
0, -127.81, 77.61, 286.33, -3254.01, 0.000, 0.000, 0.000, 18:39:25.813
1, -130.11, 73.31, 290.66, -3284.00, 0.000, 0.000, 0.000, 18:39:25.828
2, -112.07, 62.95, 276.58, -3246.09, 0.000, 0.000, 0.000, 18:39:25.828
3, -100.64, 77.60, 285.35, -3181.23, 0.000, 0.000, 0.000, 18:39:25.843
4, -127.56, 80.37, 286.19, -3249.22, 0.000, 0.000, 0.000, 18:39:25.843
5, -134.41, 76.02, 291.73, -3285.16, 0.000, 0.000, 0.000, 18:39:25.844
6, -123.17, 60.55, 279.11, -3204.27, 0.000, 0.000, 0.000, 18:39:25.844
7, -109.11, 64.11, 275.86, -3199.35, 0.000, 0.000, 0.000, 18:39:25.858
8, -104.06, 86.29, 282.17, -3328.62, 0.000, 0.000, 0.000, 18:39:25.858
9, -139.66, 70.93, 287.67, -3276.00, 0.000, 0.000, 0.000, 18:39:25.873
10, -118.87, 64.37, 285.54, -3179.42, 0.000, 0.000, 0.000, 18:39:25.873
11, -105.26, 74.21, 276.92, -3202.41, 0.000, 0.000, 0.000, 18:39:25.874
12, -126.26, 76.19, 288.83, -3258.75, 0.000, 0.000, 0.000, 18:39:25.874
13, -142.28, 72.44, 288.15, -3270.18, 0.000, 0.000, 0.000, 18:39:25.888
14, -108.04, 74.28, 284.81, -3200.78, 0.000, 0.000, 0.000, 18:39:25.888
15, -111.63, 66.83, 278.71, -3172.19, 0.000, 0.000, 0.000, 18:39:25.903
16, -125.28, 80.03, 292.36, -3252.34, 0.000, 0.000, 0.000, 18:39:25.903
17, -132.22, 77.36, 296.39, -3289.45, 0.000, 0.000, 0.000, 18:39:25.904
18, -122.83, 60.48, 281.52, -3194.77, 0.000, 0.000, 0.000, 18:39:25.904
19, -101.58, 70.84, 280.66, -3191.24, 0.000, 0.000, 0.000, 18:39:25.918
20, -114.18, 88.79, 290.46, -3301.56, 0.000, 0.000, 0.000, 18:39:25.918
21, -128.47, 75.20, 296.88, -3279.87, 0.000, 0.000, 0.000, 18:39:25.933
22, -111.31, 67.59, 290.60, -3212.67, 0.000, 0.000, 0.000, 18:39:25.933
23, -103.68, 71.24, 278.67, -3199.43, 0.000, 0.000, 0.000, 18:39:25.933
24, -117.39, 89.21, 301.67, -3242.16, 0.000, 0.000, 0.000, 18:39:25.934
25, -126.43, 77.97, 305.08, -3259.94, 0.000, 0.000, 0.000, 18:39:25.948
26, -105.85, 65.61, 281.13, -3241.82, 0.000, 0.000, 0.000, 18:39:25.948
27, -101.66, 70.09, 281.81, -3189.15, 0.000, 0.000, 0.000, 18:39:25.963
28, -117.42, 87.78, 289.74, -3270.54, 0.000, 0.000, 0.000, 18:39:25.963
29, -133.85, 66.36, 282.52, -3299.81, 0.000, 0.000, 0.000, 18:39:25.963
30, -124.10, 59.10, 275.26, -3185.69, 0.000, 0.000, 0.000, 18:39:25.963
31, -106.37, 68.14, 275.79, -3177.56, 0.000, 0.000, 0.000, 18:39:25.978
32, -105.96, 92.85, 286.19, -3300.42, 0.000, 0.000, 0.000, 18:39:25.978
33, -136.01, 73.56, 294.01, -3250.17, 0.000, 0.000, 0.000, 18:39:25.993
34, -133.23, 48.97, 273.03, -3204.74, 0.000, 0.000, 0.000, 18:39:25.993
35, -107.63, 73.45, 273.42, -3214.25, 0.000, 0.000, 0.000, 18:39:25.993
36, -127.75, 80.94, 283.36, -3244.73, 0.000, 0.000, 0.000, 18:39:25.993
37, -136.76, 72.82, 285.51, -3268.43, 0.000, 0.000, 0.000, 18:39:26.008
38, -119.08, 60.25, 268.33, -3231.87, 0.000, 0.000, 0.000, 18:39:26.008
39, -119.10, 62.37, 265.03, -3184.72, 0.000, 0.000, 0.000, 18:39:26.023
40, -122.01, 77.73, 288.56, -3266.87, 0.000, 0.000, 0.000, 18:39:26.023
41, -141.04, 62.96, 276.92, -3295.34, 0.000, 0.000, 0.000, 18:39:26.023
42, -131.03, 58.03, 280.18, -3190.49, 0.000, 0.000, 0.000, 18:39:26.024
43, -101.03, 71.85, 278.31, -3220.39, 0.000, 0.000, 0.000, 18:39:26.038
44, -107.92, 87.84, 282.76, -3316.15, 0.000, 0.000, 0.000, 18:39:26.038
45, -141.33, 66.33, 290.85, -3274.78, 0.000, 0.000, 0.000, 18:39:26.068
46, -110.15, 64.39, 292.77, -3196.56, 0.000, 0.000, 0.000, 18:39:26.068
47, -91.62, 82.17, 287.81, -3223.25, 0.000, 0.000, 0.000, 18:39:26.068
48, -116.88, 84.06, 296.53, -3239.35, 0.000, 0.000, 0.000, 18:39:26.068
49, -123.70, 78.28, 306.11, -3278.70, 0.000, 0.000, 0.000, 18:39:26.069
50, -120.27, 57.47, 285.46, -3198.17, 0.000, 0.000, 0.000, 18:39:26.069
51, -93.02, 77.91, 294.40, -3161.73, 0.000, 0.000, 0.000, 18:39:26.070
52, -110.91, 88.06, 299.09, -3256.45, 0.000, 0.000, 0.000, 18:39:26.070
53, -89.77, 90.47, 285.75, -3405.01, 0.000, 0.000, 0.000, 18:39:26.083
54, -117.46, 65.88, 298.63, -3172.80, 0.000, 0.000, 0.000, 18:39:26.083
55, -103.91, 65.45, 287.19, -3207.32, 0.000, 0.000, 0.000, 18:39:26.098
56, -117.12, 80.57, 291.88, -3263.96, 0.000, 0.000, 0.000, 18:39:26.098
57, -137.23, 66.43, 294.47, -3243.34, 0.000, 0.000, 0.000, 18:39:26.113
58, -111.85, 58.82, 292.86, -3185.96, 0.000, 0.000, 0.000, 18:39:26.113
59, -94.19, 66.96, 282.21, -3236.34, 0.000, 0.000, 0.000, 18:39:26.114
60, -115.37, 74.65, 293.05, -3266.90, 0.000, 0.000, 0.000, 18:39:26.114
61, -122.73, 68.84, 293.64, -3278.62, 0.000, 0.000, 0.000, 18:39:26.128
62, -93.09, 63.65, 284.89, -3263.89, 0.000, 0.000, 0.000, 18:39:26.128
63, -97.09, 66.00, 280.07, -3214.94, 0.000, 0.000, 0.000, 18:39:26.143
64, -111.43, 81.86, 292.39, -3277.35, 0.000, 0.000, 0.000, 18:39:26.143
65, -131.29, 72.59, 288.69, -3292.10, 0.000, 0.000, 0.000, 18:39:26.143
66, -121.87, 59.69, 280.32, -3187.14, 0.000, 0.000, 0.000, 18:39:26.143
67, -106.21, 73.55, 277.16, -3186.39, 0.000, 0.000, 0.000, 18:39:26.158
68, -112.86, 82.25, 282.19, -3325.39, 0.000, 0.000, 0.000, 18:39:26.158
69, -132.91, 75.26, 300.02, -3243.46, 0.000, 0.000, 0.000, 18:39:26.173
70, -124.00, 58.04, 278.27, -3179.97, 0.000, 0.000, 0.000, 18:39:26.173
71, -117.76, 65.33, 265.58, -3199.23, 0.000, 0.000, 0.000, 18:39:26.173
72, -133.49, 77.61, 284.48, -3261.42, 0.000, 0.000, 0.000, 18:39:26.174
73, -146.65, 69.73, 290.20, -3272.53, 0.000, 0.000, 0.000, 18:39:26.188
74, -112.97, 69.44, 279.16, -3230.45, 0.000, 0.000, 0.000, 18:39:26.188
75, -114.13, 68.13, 276.78, -3180.57, 0.000, 0.000, 0.000, 18:39:26.203
76, -125.36, 79.67, 284.67, -3278.75, 0.000, 0.000, 0.000, 18:39:26.203
77, -136.10, 71.63, 290.00, -3297.18, 0.000, 0.000, 0.000, 18:39:26.203
78, -124.78, 60.22, 282.12, -3171.21, 0.000, 0.000, 0.000, 18:39:26.204
79, -98.84, 78.60, 282.52, -3201.67, 0.000, 0.000, 0.000, 18:39:26.218
80, -104.87, 97.03, 291.76, -3299.66, 0.000, 0.000, 0.000, 18:39:26.218
81, -135.81, 74.94, 291.63, -3266.51, 0.000, 0.000, 0.000, 18:39:26.233
82, -131.62, 58.21, 275.16, -3205.32, 0.000, 0.000, 0.000, 18:39:26.233
83, -113.65, 70.38, 268.01, -3225.07, 0.000, 0.000, 0.000, 18:39:26.234
84, -127.64, 85.49, 284.71, -3255.22, 0.000, 0.000, 0.000, 18:39:26.234
85, -135.97, 73.28, 284.25, -3286.22, 0.000, 0.000, 0.000, 18:39:26.248
86, -112.54, 65.55, 269.84, -3236.37, 0.000, 0.000, 0.000, 18:39:26.248
87, -112.76, 61.98, 272.87, -3195.68, 0.000, 0.000, 0.000, 18:39:26.263
88, -131.82, 78.39, 276.09, -3288.56, 0.000, 0.000, 0.000, 18:39:26.263
89, -132.49, 75.82, 283.29, -3287.12, 0.000, 0.000, 0.000, 18:39:26.263
90, -132.17, 58.39, 278.50, -3167.87, 0.000, 0.000, 0.000, 18:39:26.264
91, -114.18, 65.41, 270.97, -3193.20, 0.000, 0.000, 0.000, 18:39:26.278
92, -112.68, 79.41, 276.91, -3348.18, 0.000, 0.000, 0.000, 18:39:26.278
93, -139.49, 70.79, 284.58, -3277.69, 0.000, 0.000, 0.000, 18:39:26.293
94, -121.30, 55.02, 278.21, -3205.92, 0.000, 0.000, 0.000, 18:39:26.293
95, -105.35, 63.45, 272.26, -3215.22, 0.000, 0.000, 0.000, 18:39:26.293
96, -131.14, 75.28, 282.24, -3236.79, 0.000, 0.000, 0.000, 18:39:26.293
97, -140.35, 64.10, 290.00, -3250.39, 0.000, 0.000, 0.000, 18:39:26.308
98, -112.60, 62.90, 270.99, -3256.22, 0.000, 0.000, 0.000, 18:39:26.308
99, -107.52, 66.52, 282.20, -3191.51, 0.000, 0.000, 0.000, 18:39:26.323
100, -127.52, 73.16, 283.18, -3284.41, 0.000, 0.000, 0.000, 18:39:26.323
101, -137.56, 64.97, 278.46, -3303.84, 0.000, 0.000, 0.000, 18:39:26.324
102, -122.53, 56.57, 273.56, -3186.71, 0.000, 0.000, 0.000, 18:39:26.324
103, -114.10, 63.16, 268.10, -3179.30, 0.000, 0.000, 0.000, 18:39:26.338
104, -127.72, 69.83, 270.60, -3331.83, 0.000, 0.000, 0.000, 18:39:26.338
105, -142.52, 63.49, 283.73, -3264.58, 0.000, 0.000, 0.000, 18:39:26.353
106, -126.24, 53.77, 270.68, -3218.04, 0.000, 0.000, 0.000, 18:39:26.353
107, -114.73, 66.83, 262.94, -3233.44, 0.000, 0.000, 0.000, 18:39:26.354
108, -129.14, 77.18, 283.68, -3261.35, 0.000, 0.000, 0.000, 18:39:26.354
109, -129.76, 69.29, 295.30, -3274.01, 0.000, 0.000, 0.000, 18:39:26.368
110, -99.62, 52.90, 280.05, -3267.05, 0.000, 0.000, 0.000, 18:39:26.368
111, -111.88, 70.89, 282.03, -3166.72, 0.000, 0.000, 0.000, 18:39:26.398
112, -131.80, 77.83, 281.83, -3273.81, 0.000, 0.000, 0.000, 18:39:26.398
113, -129.96, 67.76, 290.96, -3304.63, 0.000, 0.000, 0.000, 18:39:26.398
114, -118.33, 57.02, 281.01, -3198.29, 0.000, 0.000, 0.000, 18:39:26.398
115, -101.46, 67.52, 280.09, -3195.58, 0.000, 0.000, 0.000, 18:39:26.399
116, -112.40, 88.52, 297.90, -3265.64, 0.000, 0.000, 0.000, 18:39:26.399
117, -136.91, 69.36, 293.88, -3269.92, 0.000, 0.000, 0.000, 18:39:26.400
118, -114.35, 66.56, 279.83, -3203.29, 0.000, 0.000, 0.000, 18:39:26.400
119, -65.38, 81.04, 265.39, -3328.64, 0.000, 0.000, 0.000, 18:39:26.413
120, -138.95, 74.49, 290.16, -3252.81, 0.000, 0.000, 0.000, 18:39:26.413
121, -128.92, 70.02, 299.59, -3265.76, 0.000, 0.000, 0.000, 18:39:26.428
122, -115.47, 57.51, 281.70, -3210.84, 0.000, 0.000, 0.000, 18:39:26.428
123, -114.72, 64.97, 277.73, -3195.43, 0.000, 0.000, 0.000, 18:39:26.443
124, -128.65, 74.80, 281.11, -3291.07, 0.000, 0.000, 0.000, 18:39:26.443
125, -133.58, 74.22, 289.59, -3274.62, 0.000, 0.000, 0.000, 18:39:26.444
126, -120.37, 47.23, 281.32, -3203.42, 0.000, 0.000, 0.000, 18:39:26.444
127, -101.40, 71.23, 284.55, -3219.14, 0.000, 0.000, 0.000, 18:39:26.458
128, -106.87, 81.06, 290.88, -3328.37, 0.000, 0.000, 0.000, 18:39:26.458
129, -130.65, 65.03, 296.33, -3259.59, 0.000, 0.000, 0.000, 18:39:26.473
130, -119.90, 55.47, 281.76, -3207.34, 0.000, 0.000, 0.000, 18:39:26.473
131, -100.56, 64.33, 279.85, -3208.34, 0.000, 0.000, 0.000, 18:39:26.473
132, -120.30, 83.45, 296.67, -3258.75, 0.000, 0.000, 0.000, 18:39:26.473
133, -139.54, 62.59, 288.43, -3269.39, 0.000, 0.000, 0.000, 18:39:26.488
134, -108.49, 61.17, 280.17, -3239.45, 0.000, 0.000, 0.000, 18:39:26.488
135, -109.73, 61.68, 276.05, -3203.55, 0.000, 0.000, 0.000, 18:39:26.503
136, -132.07, 72.62, 280.96, -3287.00, 0.000, 0.000, 0.000, 18:39:26.503
137, -133.36, 69.23, 289.32, -3299.47, 0.000, 0.000, 0.000, 18:39:26.503
138, -124.34, 53.40, 278.07, -3189.33, 0.000, 0.000, 0.000, 18:39:26.503
139, -113.10, 65.79, 283.63, -3190.38, 0.000, 0.000, 0.000, 18:39:26.518
140, -121.12, 79.70, 282.06, -3315.92, 0.000, 0.000, 0.000, 18:39:26.518
141, -154.86, 62.12, 284.91, -3254.09, 0.000, 0.000, 0.000, 18:39:26.533
142, -119.49, 60.30, 281.03, -3199.19, 0.000, 0.000, 0.000, 18:39:26.533
143, -117.28, 65.65, 262.01, -3236.08, 0.000, 0.000, 0.000, 18:39:26.533
144, -130.50, 81.05, 283.33, -3287.21, 0.000, 0.000, 0.000, 18:39:26.534
145, -143.60, 59.41, 280.82, -3294.60, 0.000, 0.000, 0.000, 18:39:26.548
146, -114.29, 64.25, 271.25, -3221.06, 0.000, 0.000, 0.000, 18:39:26.548
147, -129.14, 59.48, 271.75, -3174.64, 0.000, 0.000, 0.000, 18:39:26.563
148, -130.29, 84.41, 288.57, -3257.70, 0.000, 0.000, 0.000, 18:39:26.563
149, -142.81, 68.13, 281.05, -3294.18, 0.000, 0.000, 0.000, 18:39:26.563
150, -131.55, 60.18, 280.38, -3163.87, 0.000, 0.000, 0.000, 18:39:26.563
151, -113.43, 72.26, 277.50, -3183.00, 0.000, 0.000, 0.000, 18:39:26.578
152, -119.53, 85.80, 283.11, -3304.24, 0.000, 0.000, 0.000, 18:39:26.578
153, -145.80, 72.28, 290.28, -3257.99, 0.000, 0.000, 0.000, 18:39:26.593
154, -125.92, 63.94, 279.38, -3171.06, 0.000, 0.000, 0.000, 18:39:26.593
155, -106.57, 77.85, 279.18, -3217.09, 0.000, 0.000, 0.000, 18:39:26.594
156, -132.27, 80.91, 286.33, -3245.84, 0.000, 0.000, 0.000, 18:39:26.594
157, -133.79, 80.12, 300.47, -3239.10, 0.000, 0.000, 0.000, 18:39:26.608
158, -110.82, 62.57, 274.85, -3260.47, 0.000, 0.000, 0.000, 18:39:26.608
159, -115.04, 67.96, 272.29, -3199.70, 0.000, 0.000, 0.000, 18:39:26.623
160, -121.57, 82.49, 290.82, -3272.60, 0.000, 0.000, 0.000, 18:39:26.623
161, -128.17, 75.57, 287.17, -3308.50, 0.000, 0.000, 0.000, 18:39:26.623
162, -116.80, 62.30, 281.34, -3194.51, 0.000, 0.000, 0.000, 18:39:26.624
163, -103.02, 78.38, 283.25, -3205.92, 0.000, 0.000, 0.000, 18:39:26.638
164, -115.94, 84.03, 278.64, -3317.08, 0.000, 0.000, 0.000, 18:39:26.638
165, -144.47, 63.58, 285.08, -3257.79, 0.000, 0.000, 0.000, 18:39:26.653
166, -127.68, 52.53, 272.59, -3187.17, 0.000, 0.000, 0.000, 18:39:26.653
167, -106.45, 68.59, 270.86, -3210.53, 0.000, 0.000, 0.000, 18:39:26.654
168, -119.10, 83.67, 288.94, -3286.97, 0.000, 0.000, 0.000, 18:39:26.654
169, -128.21, 78.60, 291.19, -3293.74, 0.000, 0.000, 0.000, 18:39:26.668
170, -104.72, 67.08, 273.78, -3265.36, 0.000, 0.000, 0.000, 18:39:26.668
171, -102.84, 77.98, 282.79, -3203.13, 0.000, 0.000, 0.000, 18:39:26.683
172, -119.53, 76.83, 288.28, -3285.50, 0.000, 0.000, 0.000, 18:39:26.683
173, -130.39, 71.02, 285.87, -3293.26, 0.000, 0.000, 0.000, 18:39:26.684
174, -118.58, 61.55, 278.71, -3196.47, 0.000, 0.000, 0.000, 18:39:26.684
175, -109.56, 65.79, 277.18, -3193.34, 0.000, 0.000, 0.000, 18:39:26.713
176, -110.92, 88.43, 291.03, -3301.86, 0.000, 0.000, 0.000, 18:39:26.713
177, -136.18, 71.55, 296.76, -3231.24, 0.000, 0.000, 0.000, 18:39:26.713
178, -117.35, 66.93, 289.34, -3173.33, 0.000, 0.000, 0.000, 18:39:26.713
179, -109.88, 68.80, 282.36, -3181.39, 0.000, 0.000, 0.000, 18:39:26.714
180, -127.47, 83.99, 293.19, -3243.37, 0.000, 0.000, 0.000, 18:39:26.714
181, -130.20, 77.60, 297.22, -3265.85, 0.000, 0.000, 0.000, 18:39:26.728
182, -93.50, 70.35, 278.58, -3265.33, 0.000, 0.000, 0.000, 18:39:26.728
183, -113.43, 72.41, 290.70, -3171.87, 0.000, 0.000, 0.000, 18:39:26.743
184, -131.34, 72.73, 291.36, -3257.42, 0.000, 0.000, 0.000, 18:39:26.743
185, -132.93, 76.37, 293.66, -3269.28, 0.000, 0.000, 0.000, 18:39:26.744
186, -127.33, 57.87, 281.02, -3161.30, 0.000, 0.000, 0.000, 18:39:26.744
187, -112.94, 65.49, 281.69, -3177.09, 0.000, 0.000, 0.000, 18:39:26.758
188, -120.46, 78.94, 284.21, -3312.22, 0.000, 0.000, 0.000, 18:39:26.758
189, -147.89, 63.21, 283.01, -3246.77, 0.000, 0.000, 0.000, 18:39:26.773
190, -128.56, 52.01, 268.93, -3208.93, 0.000, 0.000, 0.000, 18:39:26.773
191, -112.37, 70.10, 264.81, -3239.06, 0.000, 0.000, 0.000, 18:39:26.774
192, -124.03, 82.65, 288.33, -3279.43, 0.000, 0.000, 0.000, 18:39:26.774
193, -138.80, 72.32, 289.12, -3246.83, 0.000, 0.000, 0.000, 18:39:26.788
194, -112.17, 66.99, 272.76, -3233.55, 0.000, 0.000, 0.000, 18:39:26.788
195, -110.36, 70.87, 281.79, -3167.08, 0.000, 0.000, 0.000, 18:39:26.803
196, -133.41, 74.53, 278.71, -3268.72, 0.000, 0.000, 0.000, 18:39:26.803
197, -141.10, 68.21, 278.66, -3294.91, 0.000, 0.000, 0.000, 18:39:26.803
198, -117.61, 71.76, 274.01, -3195.79, 0.000, 0.000, 0.000, 18:39:26.804
199, -111.35, 67.30, 271.25, -3216.42, 0.000, 0.000, 0.000, 18:39:26.818
200, -113.40, 89.72, 279.40, -3323.25, 0.000, 0.000, 0.000, 18:39:26.818
0, -147.33, 66.96, 278.66, -3260.07, 0.000, 0.000, 0.000, 18:39:26.819
1, -120.20, 62.54, 280.57, -3220.41, 0.000, 0.000, 0.000, 18:39:26.833
2, -94.66, 72.89, 269.94, -3267.62, 0.000, 0.000, 0.000, 18:39:26.833
3, -127.47, 81.60, 286.93, -3275.48, 0.000, 0.000, 0.000, 18:39:26.848
4, -134.46, 69.02, 285.02, -3277.47, 0.000, 0.000, 0.000, 18:39:26.848
5, -117.67, 61.54, 279.59, -3198.02, 0.000, 0.000, 0.000, 18:39:26.849
6, -115.50, 70.11, 277.85, -3174.88, 0.000, 0.000, 0.000, 18:39:26.849
7, -131.06, 77.09, 283.70, -3274.73, 0.000, 0.000, 0.000, 18:39:26.863
8, -121.87, 74.95, 290.11, -3313.10, 0.000, 0.000, 0.000, 18:39:26.863
9, -116.50, 64.30, 286.84, -3177.01, 0.000, 0.000, 0.000, 18:39:26.878
10, -103.85, 76.24, 284.75, -3195.40, 0.000, 0.000, 0.000, 18:39:26.878
11, -108.13, 90.47, 294.87, -3294.06, 0.000, 0.000, 0.000, 18:39:26.879
12, -133.52, 78.48, 295.34, -3254.40, 0.000, 0.000, 0.000, 18:39:26.879
13, -114.42, 67.74, 282.09, -3192.49, 0.000, 0.000, 0.000, 18:39:26.893
14, -94.07, 82.45, 277.89, -3238.20, 0.000, 0.000, 0.000, 18:39:26.893
15, -132.84, 78.56, 282.91, -3294.89, 0.000, 0.000, 0.000, 18:39:26.908
16, -135.55, 64.50, 286.24, -3283.83, 0.000, 0.000, 0.000, 18:39:26.908
17, -118.43, 55.25, 274.04, -3216.87, 0.000, 0.000, 0.000, 18:39:26.909
18, -114.17, 77.77, 274.12, -3190.97, 0.000, 0.000, 0.000, 18:39:26.909
19, -119.83, 92.93, 295.66, -3264.76, 0.000, 0.000, 0.000, 18:39:26.923
20, -117.71, 92.99, 295.81, -3294.26, 0.000, 0.000, 0.000, 18:39:26.923
21, -112.93, 75.10, 284.05, -3173.37, 0.000, 0.000, 0.000, 18:39:26.938
22, -113.77, 73.52, 274.54, -3195.11, 0.000, 0.000, 0.000, 18:39:26.938
23, -118.45, 91.13, 289.66, -3284.94, 0.000, 0.000, 0.000, 18:39:26.938
24, -130.01, 79.80, 303.30, -3250.77, 0.000, 0.000, 0.000, 18:39:26.939
25, -102.69, 72.16, 288.18, -3216.60, 0.000, 0.000, 0.000, 18:39:26.953
26, -90.97, 82.04, 273.74, -3256.24, 0.000, 0.000, 0.000, 18:39:26.953
27, -126.89, 82.58, 288.24, -3271.00, 0.000, 0.000, 0.000, 18:39:26.968
28, -129.65, 77.52, 296.03, -3260.86, 0.000, 0.000, 0.000, 18:39:26.968
29, -111.58, 68.03, 275.55, -3209.88, 0.000, 0.000, 0.000, 18:39:26.969
30, -119.01, 69.43, 274.81, -3182.36, 0.000, 0.000, 0.000, 18:39:26.969
31, -135.96, 80.28, 284.43, -3261.37, 0.000, 0.000, 0.000, 18:39:26.983
32, -131.75, 76.24, 283.23, -3292.71, 0.000, 0.000, 0.000, 18:39:26.983
33, -128.85, 58.14, 277.52, -3150.54, 0.000, 0.000, 0.000, 18:39:26.998
34, -115.72, 72.61, 274.34, -3212.67, 0.000, 0.000, 0.000, 18:39:26.998
35, -131.34, 81.77, 273.34, -3311.18, 0.000, 0.000, 0.000, 18:39:26.999
36, -146.76, 66.74, 289.85, -3247.95, 0.000, 0.000, 0.000, 18:39:26.999
37, -125.16, 56.43, 278.04, -3180.99, 0.000, 0.000, 0.000, 18:39:27.028
38, -107.26, 66.92, 267.30, -3258.54, 0.000, 0.000, 0.000, 18:39:27.028
39, -133.61, 70.67, 278.41, -3311.89, 0.000, 0.000, 0.000, 18:39:27.028
40, -141.45, 55.63, 276.49, -3296.37, 0.000, 0.000, 0.000, 18:39:27.028
41, -124.29, 60.71, 275.98, -3199.15, 0.000, 0.000, 0.000, 18:39:27.029
42, -107.84, 71.12, 277.36, -3215.71, 0.000, 0.000, 0.000, 18:39:27.029
43, -127.93, 75.80, 285.60, -3292.79, 0.000, 0.000, 0.000, 18:39:27.043
44, -108.58, 77.39, 281.49, -3371.02, 0.000, 0.000, 0.000, 18:39:27.043
45, -126.96, 58.71, 278.44, -3166.37, 0.000, 0.000, 0.000, 18:39:27.058
46, -108.32, 71.35, 280.94, -3205.79, 0.000, 0.000, 0.000, 18:39:27.058
47, -116.77, 83.08, 293.25, -3292.03, 0.000, 0.000, 0.000, 18:39:27.059
48, -141.06, 69.30, 293.43, -3261.12, 0.000, 0.000, 0.000, 18:39:27.059
49, -120.66, 57.08, 276.08, -3193.40, 0.000, 0.000, 0.000, 18:39:27.073
50, -104.74, 72.71, 271.08, -3252.00, 0.000, 0.000, 0.000, 18:39:27.073
51, -127.57, 84.59, 292.59, -3244.66, 0.000, 0.000, 0.000, 18:39:27.088
52, -125.69, 76.15, 295.69, -3266.36, 0.000, 0.000, 0.000, 18:39:27.088
53, -120.49, 65.75, 276.53, -3195.98, 0.000, 0.000, 0.000, 18:39:27.089
54, -111.99, 73.81, 283.35, -3177.23, 0.000, 0.000, 0.000, 18:39:27.089
55, -126.95, 80.30, 286.76, -3289.48, 0.000, 0.000, 0.000, 18:39:27.103
56, -123.24, 77.98, 290.24, -3283.26, 0.000, 0.000, 0.000, 18:39:27.103
57, -119.85, 67.01, 286.06, -3162.32, 0.000, 0.000, 0.000, 18:39:27.118
58, -114.04, 70.93, 275.30, -3206.32, 0.000, 0.000, 0.000, 18:39:27.118
59, -125.74, 85.04, 284.31, -3285.67, 0.000, 0.000, 0.000, 18:39:27.118
60, -138.98, 76.79, 289.14, -3239.98, 0.000, 0.000, 0.000, 18:39:27.119
61, -117.57, 61.09, 278.80, -3194.65, 0.000, 0.000, 0.000, 18:39:27.133
62, -100.20, 83.19, 274.46, -3243.04, 0.000, 0.000, 0.000, 18:39:27.133
63, -127.14, 80.60, 285.42, -3267.05, 0.000, 0.000, 0.000, 18:39:27.163
64, -145.72, 65.19, 280.95, -3270.67, 0.000, 0.000, 0.000, 18:39:27.163
65, -114.05, 66.08, 273.38, -3180.90, 0.000, 0.000, 0.000, 18:39:27.163
66, -116.98, 71.34, 274.14, -3178.96, 0.000, 0.000, 0.000, 18:39:27.163
67, -122.98, 93.99, 297.32, -3235.21, 0.000, 0.000, 0.000, 18:39:27.164
68, -131.27, 75.65, 290.68, -3243.53, 0.000, 0.000, 0.000, 18:39:27.164
69, -121.90, 60.74, 284.10, -3152.35, 0.000, 0.000, 0.000, 18:39:27.165
70, -103.04, 72.57, 282.07, -3229.87, 0.000, 0.000, 0.000, 18:39:27.165
71, -81.69, 95.80, 277.83, -3419.22, 0.000, 0.000, 0.000, 18:39:27.178
72, -137.73, 66.98, 289.05, -3247.93, 0.000, 0.000, 0.000, 18:39:27.178
73, -116.18, 62.75, 283.98, -3162.28, 0.000, 0.000, 0.000, 18:39:27.193
74, -102.05, 82.71, 281.87, -3208.36, 0.000, 0.000, 0.000, 18:39:27.193
75, -126.32, 82.26, 288.33, -3268.25, 0.000, 0.000, 0.000, 18:39:27.208
76, -131.56, 68.59, 292.01, -3270.99, 0.000, 0.000, 0.000, 18:39:27.208
77, -104.70, 65.14, 284.11, -3213.94, 0.000, 0.000, 0.000, 18:39:27.209
78, -107.08, 75.87, 284.86, -3197.92, 0.000, 0.000, 0.000, 18:39:27.209
79, -123.97, 84.05, 290.71, -3295.77, 0.000, 0.000, 0.000, 18:39:27.223
80, -123.62, 72.76, 288.48, -3297.14, 0.000, 0.000, 0.000, 18:39:27.223
81, -126.14, 56.36, 281.97, -3151.05, 0.000, 0.000, 0.000, 18:39:27.238
82, -110.25, 68.11, 276.88, -3217.25, 0.000, 0.000, 0.000, 18:39:27.238
83, -120.57, 85.21, 287.91, -3294.16, 0.000, 0.000, 0.000, 18:39:27.239
84, -131.38, 78.82, 297.83, -3241.30, 0.000, 0.000, 0.000, 18:39:27.239
85, -111.70, 63.63, 288.15, -3196.68, 0.000, 0.000, 0.000, 18:39:27.253
86, -93.28, 82.93, 279.05, -3221.97, 0.000, 0.000, 0.000, 18:39:27.253
87, -127.49, 85.71, 290.36, -3263.79, 0.000, 0.000, 0.000, 18:39:27.268
88, -131.72, 74.17, 288.63, -3263.21, 0.000, 0.000, 0.000, 18:39:27.268
89, -110.56, 72.67, 279.69, -3180.10, 0.000, 0.000, 0.000, 18:39:27.269
90, -108.40, 81.18, 288.46, -3174.48, 0.000, 0.000, 0.000, 18:39:27.269
91, -120.97, 84.48, 294.14, -3286.58, 0.000, 0.000, 0.000, 18:39:27.283
92, -122.08, 77.88, 286.09, -3306.81, 0.000, 0.000, 0.000, 18:39:27.283
93, -103.02, 71.30, 294.30, -3169.30, 0.000, 0.000, 0.000, 18:39:27.298
94, -103.40, 74.32, 284.51, -3201.78, 0.000, 0.000, 0.000, 18:39:27.298
95, -122.38, 83.94, 284.81, -3297.93, 0.000, 0.000, 0.000, 18:39:27.299
96, -136.33, 71.59, 288.08, -3261.93, 0.000, 0.000, 0.000, 18:39:27.299
97, -103.49, 66.76, 285.44, -3222.20, 0.000, 0.000, 0.000, 18:39:27.313
98, -83.97, 85.85, 285.16, -3247.70, 0.000, 0.000, 0.000, 18:39:27.313
99, -129.18, 77.89, 287.26, -3288.33, 0.000, 0.000, 0.000, 18:39:27.328
100, -130.47, 67.77, 283.15, -3278.28, 0.000, 0.000, 0.000, 18:39:27.328
101, -110.88, 60.83, 272.88, -3224.97, 0.000, 0.000, 0.000, 18:39:27.329
102, -100.84, 83.77, 283.53, -3194.28, 0.000, 0.000, 0.000, 18:39:27.329
103, -129.28, 80.86, 287.58, -3268.61, 0.000, 0.000, 0.000, 18:39:27.358
104, -127.42, 66.79, 282.43, -3315.46, 0.000, 0.000, 0.000, 18:39:27.358
105, -118.05, 60.24, 277.75, -3197.92, 0.000, 0.000, 0.000, 18:39:27.358
106, -117.12, 64.05, 270.86, -3235.85, 0.000, 0.000, 0.000, 18:39:27.358
107, -132.74, 83.30, 282.09, -3290.66, 0.000, 0.000, 0.000, 18:39:27.359
108, -141.53, 65.04, 287.18, -3235.54, 0.000, 0.000, 0.000, 18:39:27.359
111, -194.67, 58.78, 302.72, -3212.86, 0.000, 0.000, 0.000, 18:39:27.388
112, -190.21, 53.36, 312.75, -3190.46, 0.000, 0.000, 0.000, 18:39:27.388
113, -158.11, 58.20, 303.55, -3134.50, 0.000, 0.000, 0.000, 18:39:27.389
114, -159.07, 62.61, 299.48, -3142.13, 0.000, 0.000, 0.000, 18:39:27.389
115, -174.99, 74.88, 312.79, -3219.27, 0.000, 0.000, 0.000, 18:39:27.403
116, -183.51, 57.24, 302.64, -3254.84, 0.000, 0.000, 0.000, 18:39:27.403
117, -171.04, 49.09, 298.26, -3122.17, 0.000, 0.000, 0.000, 18:39:27.418
118, -165.01, 55.46, 292.55, -3144.84, 0.000, 0.000, 0.000, 18:39:27.418
119, -174.81, 76.24, 316.60, -3205.12, 0.000, 0.000, 0.000, 18:39:27.419
120, -191.77, 56.53, 315.54, -3166.04, 0.000, 0.000, 0.000, 18:39:27.419
121, -167.70, 51.33, 304.40, -3120.62, 0.000, 0.000, 0.000, 18:39:27.433
122, -161.15, 59.05, 286.68, -3201.35, 0.000, 0.000, 0.000, 18:39:27.433
123, -187.28, 57.58, 304.14, -3213.06, 0.000, 0.000, 0.000, 18:39:27.448
124, -195.51, 51.54, 304.48, -3189.70, 0.000, 0.000, 0.000, 18:39:27.448
125, -166.62, 48.73, 299.64, -3144.72, 0.000, 0.000, 0.000, 18:39:27.448
126, -165.19, 61.97, 305.21, -3122.60, 0.000, 0.000, 0.000, 18:39:27.448
127, -179.19, 65.56, 314.34, -3225.54, 0.000, 0.000, 0.000, 18:39:27.463
128, -180.49, 61.54, 305.81, -3241.45, 0.000, 0.000, 0.000, 18:39:27.463
129, -175.98, 45.20, 304.55, -3081.80, 0.000, 0.000, 0.000, 18:39:27.478
130, -168.64, 55.80, 296.56, -3123.28, 0.000, 0.000, 0.000, 18:39:27.478
131, -186.17, 62.37, 306.18, -3212.41, 0.000, 0.000, 0.000, 18:39:27.478
132, -195.69, 57.32, 313.77, -3157.34, 0.000, 0.000, 0.000, 18:39:27.479
133, -169.94, 50.53, 303.35, -3096.93, 0.000, 0.000, 0.000, 18:39:27.493
134, -146.97, 62.88, 300.67, -3208.23, 0.000, 0.000, 0.000, 18:39:27.493
135, -176.29, 61.76, 312.15, -3240.31, 0.000, 0.000, 0.000, 18:39:27.508
136, -184.56, 54.70, 308.81, -3210.10, 0.000, 0.000, 0.000, 18:39:27.508
137, -159.85, 55.69, 299.58, -3144.70, 0.000, 0.000, 0.000, 18:39:27.509
138, -158.41, 63.25, 303.41, -3139.37, 0.000, 0.000, 0.000, 18:39:27.509
139, -182.67, 62.19, 305.70, -3224.93, 0.000, 0.000, 0.000, 18:39:27.523
140, -174.67, 58.25, 301.33, -3260.31, 0.000, 0.000, 0.000, 18:39:27.523
141, -168.70, 48.50, 296.07, -3114.55, 0.000, 0.000, 0.000, 18:39:27.538
142, -154.84, 65.70, 303.15, -3150.17, 0.000, 0.000, 0.000, 18:39:27.538
143, -175.25, 67.15, 308.71, -3239.27, 0.000, 0.000, 0.000, 18:39:27.538
144, -189.90, 51.20, 312.36, -3183.82, 0.000, 0.000, 0.000, 18:39:27.539
145, -164.29, 46.19, 301.17, -3123.66, 0.000, 0.000, 0.000, 18:39:27.553
146, -147.99, 62.75, 289.68, -3199.97, 0.000, 0.000, 0.000, 18:39:27.553
147, -178.59, 70.56, 307.72, -3228.43, 0.000, 0.000, 0.000, 18:39:27.568
148, -181.36, 55.09, 309.53, -3196.25, 0.000, 0.000, 0.000, 18:39:27.568
149, -161.59, 57.18, 304.02, -3134.12, 0.000, 0.000, 0.000, 18:39:27.569
150, -167.22, 63.84, 301.09, -3109.77, 0.000, 0.000, 0.000, 18:39:27.569
151, -189.42, 59.19, 302.35, -3221.29, 0.000, 0.000, 0.000, 18:39:27.583
152, -178.06, 61.66, 299.93, -3209.80, 0.000, 0.000, 0.000, 18:39:27.583
153, -177.34, 48.68, 302.25, -3086.33, 0.000, 0.000, 0.000, 18:39:27.598
154, -155.66, 65.72, 308.95, -3139.22, 0.000, 0.000, 0.000, 18:39:27.598
155, -179.24, 73.29, 308.00, -3224.12, 0.000, 0.000, 0.000, 18:39:27.599
156, -185.19, 61.90, 314.98, -3185.28, 0.000, 0.000, 0.000, 18:39:27.599
157, -168.64, 53.43, 302.60, -3123.88, 0.000, 0.000, 0.000, 18:39:27.613
158, -157.54, 68.59, 293.84, -3182.69, 0.000, 0.000, 0.000, 18:39:27.613
159, -179.57, 67.46, 312.90, -3209.77, 0.000, 0.000, 0.000, 18:39:27.628
160, -187.50, 55.57, 309.20, -3200.20, 0.000, 0.000, 0.000, 18:39:27.628
161, -176.77, 40.23, 293.24, -3139.55, 0.000, 0.000, 0.000, 18:39:27.629
162, -166.70, 59.25, 298.88, -3119.08, 0.000, 0.000, 0.000, 18:39:27.629
163, -181.65, 70.19, 312.34, -3211.89, 0.000, 0.000, 0.000, 18:39:27.643
164, -176.65, 61.75, 310.61, -3215.66, 0.000, 0.000, 0.000, 18:39:27.643
165, -166.45, 54.14, 308.50, -3097.01, 0.000, 0.000, 0.000, 18:39:27.673
166, -152.40, 70.46, 313.80, -3117.13, 0.000, 0.000, 0.000, 18:39:27.673
167, -173.46, 66.81, 315.06, -3199.48, 0.000, 0.000, 0.000, 18:39:27.673
168, -186.70, 53.94, 315.71, -3153.15, 0.000, 0.000, 0.000, 18:39:27.673
169, -166.74, 47.28, 305.02, -3114.46, 0.000, 0.000, 0.000, 18:39:27.674
170, -152.05, 69.23, 306.57, -3140.16, 0.000, 0.000, 0.000, 18:39:27.674
171, -172.13, 72.40, 321.66, -3208.42, 0.000, 0.000, 0.000, 18:39:27.675
172, -183.50, 67.43, 318.87, -3194.28, 0.000, 0.000, 0.000, 18:39:27.675
173, -125.77, 58.29, 290.12, -3266.53, 0.000, 0.000, 0.000, 18:39:27.688
174, -167.05, 62.21, 302.71, -3146.23, 0.000, 0.000, 0.000, 18:39:27.688
175, -178.96, 74.44, 308.65, -3219.58, 0.000, 0.000, 0.000, 18:39:27.703
176, -188.58, 61.44, 304.95, -3227.33, 0.000, 0.000, 0.000, 18:39:27.703
177, -176.25, 43.24, 294.14, -3113.55, 0.000, 0.000, 0.000, 18:39:27.718
178, -163.04, 59.47, 298.32, -3147.22, 0.000, 0.000, 0.000, 18:39:27.718
179, -185.87, 67.86, 297.81, -3226.10, 0.000, 0.000, 0.000, 18:39:27.718
180, -187.83, 61.89, 316.29, -3171.14, 0.000, 0.000, 0.000, 18:39:27.719
181, -165.76, 47.10, 306.64, -3106.16, 0.000, 0.000, 0.000, 18:39:27.733
182, -150.24, 65.20, 297.43, -3182.02, 0.000, 0.000, 0.000, 18:39:27.733
183, -178.17, 67.19, 312.18, -3209.84, 0.000, 0.000, 0.000, 18:39:27.748
184, -185.88, 57.29, 311.33, -3183.37, 0.000, 0.000, 0.000, 18:39:27.748
185, -169.14, 46.32, 293.13, -3137.06, 0.000, 0.000, 0.000, 18:39:27.749
186, -166.23, 54.36, 299.22, -3129.51, 0.000, 0.000, 0.000, 18:39:27.749
187, -182.16, 61.87, 308.64, -3228.90, 0.000, 0.000, 0.000, 18:39:27.763
188, -166.07, 64.39, 304.46, -3269.37, 0.000, 0.000, 0.000, 18:39:27.763
189, -171.99, 38.37, 293.92, -3106.95, 0.000, 0.000, 0.000, 18:39:27.778
190, -170.04, 48.66, 293.86, -3151.42, 0.000, 0.000, 0.000, 18:39:27.778
191, -174.17, 61.64, 301.54, -3276.41, 0.000, 0.000, 0.000, 18:39:27.779
192, -189.89, 52.18, 301.19, -3211.26, 0.000, 0.000, 0.000, 18:39:27.779
193, -168.31, 42.48, 289.81, -3158.61, 0.000, 0.000, 0.000, 18:39:27.793
194, -147.23, 65.24, 290.63, -3247.26, 0.000, 0.000, 0.000, 18:39:27.793
195, -169.76, 69.65, 307.87, -3243.04, 0.000, 0.000, 0.000, 18:39:27.808
196, -175.33, 58.72, 311.19, -3207.81, 0.000, 0.000, 0.000, 18:39:27.808
197, -155.98, 48.86, 295.63, -3167.49, 0.000, 0.000, 0.000, 18:39:27.809
198, -153.61, 68.14, 306.45, -3133.19, 0.000, 0.000, 0.000, 18:39:27.809
199, -170.93, 69.95, 319.41, -3211.46, 0.000, 0.000, 0.000, 18:39:27.823
200, -168.12, 65.60, 317.47, -3240.24, 0.000, 0.000, 0.000, 18:39:27.823
0, -114.70, 62.75, 285.71, -3177.01, 0.000, 0.000, 0.000, 18:39:27.823
1, -103.05, 73.00, 287.97, -3208.46, 0.000, 0.000, 0.000, 18:39:27.838
2, -114.40, 79.84, 287.40, -3309.16, 0.000, 0.000, 0.000, 18:39:27.838
3, -129.90, 73.65, 301.19, -3220.20, 0.000, 0.000, 0.000, 18:39:27.853
4, -120.00, 56.22, 276.49, -3185.99, 0.000, 0.000, 0.000, 18:39:27.853
5, -112.55, 72.82, 275.08, -3228.74, 0.000, 0.000, 0.000, 18:39:27.853
6, -137.72, 74.05, 285.88, -3262.54, 0.000, 0.000, 0.000, 18:39:27.854
7, -139.17, 64.79, 287.19, -3236.56, 0.000, 0.000, 0.000, 18:39:27.868
8, -101.67, 69.94, 281.46, -3218.83, 0.000, 0.000, 0.000, 18:39:27.868
9, -112.89, 74.83, 282.78, -3193.76, 0.000, 0.000, 0.000, 18:39:27.883
10, -137.34, 74.02, 279.02, -3284.39, 0.000, 0.000, 0.000, 18:39:27.883
11, -142.06, 65.39, 278.83, -3244.38, 0.000, 0.000, 0.000, 18:39:27.883
12, -119.39, 66.34, 280.13, -3165.60, 0.000, 0.000, 0.000, 18:39:27.883
13, -119.65, 69.38, 272.07, -3209.52, 0.000, 0.000, 0.000, 18:39:27.898
14, -129.72, 72.84, 271.65, -3345.60, 0.000, 0.000, 0.000, 18:39:27.898
15, -144.21, 60.74, 283.59, -3242.18, 0.000, 0.000, 0.000, 18:39:27.913
16, -112.45, 64.87, 283.34, -3166.29, 0.000, 0.000, 0.000, 18:39:27.913
17, -105.60, 75.81, 281.68, -3197.42, 0.000, 0.000, 0.000, 18:39:27.913
18, -138.06, 72.74, 289.81, -3250.94, 0.000, 0.000, 0.000, 18:39:27.914
19, -143.99, 63.96, 283.48, -3259.37, 0.000, 0.000, 0.000, 18:39:27.928
20, -107.09, 63.33, 276.02, -3232.82, 0.000, 0.000, 0.000, 18:39:27.928
21, -110.47, 75.29, 278.10, -3219.73, 0.000, 0.000, 0.000, 18:39:27.943
22, -127.82, 80.08, 286.60, -3296.46, 0.000, 0.000, 0.000, 18:39:27.943
23, -127.47, 72.85, 281.09, -3287.72, 0.000, 0.000, 0.000, 18:39:27.944
24, -121.02, 53.15, 277.22, -3173.24, 0.000, 0.000, 0.000, 18:39:27.944
25, -107.62, 69.98, 282.28, -3203.65, 0.000, 0.000, 0.000, 18:39:27.958
26, -119.89, 75.89, 284.00, -3338.84, 0.000, 0.000, 0.000, 18:39:27.958
27, -142.80, 65.14, 288.81, -3247.33, 0.000, 0.000, 0.000, 18:39:27.988
28, -122.43, 56.96, 272.47, -3182.10, 0.000, 0.000, 0.000, 18:39:27.988
29, -98.08, 81.11, 284.25, -3236.03, 0.000, 0.000, 0.000, 18:39:27.988
30, -130.60, 80.90, 289.41, -3276.58, 0.000, 0.000, 0.000, 18:39:27.988
31, -137.39, 67.31, 284.02, -3252.99, 0.000, 0.000, 0.000, 18:39:27.989
32, -116.54, 58.34, 275.55, -3207.34, 0.000, 0.000, 0.000, 18:39:27.989
33, -101.93, 77.17, 279.80, -3226.15, 0.000, 0.000, 0.000, 18:39:27.990
34, -117.55, 83.66, 286.40, -3309.92, 0.000, 0.000, 0.000, 18:39:27.990
35, -96.82, 80.82, 271.04, -3377.24, 0.000, 0.000, 0.000, 18:39:28.003
36, -124.49, 67.82, 282.86, -3137.48, 0.000, 0.000, 0.000, 18:39:28.003
37, -110.45, 75.34, 280.07, -3213.74, 0.000, 0.000, 0.000, 18:39:28.018
38, -135.48, 78.90, 280.18, -3289.23, 0.000, 0.000, 0.000, 18:39:28.018
39, -138.93, 65.54, 294.49, -3224.38, 0.000, 0.000, 0.000, 18:39:28.033
40, -116.05, 63.42, 282.96, -3179.65, 0.000, 0.000, 0.000, 18:39:28.033
41, -108.49, 70.36, 271.67, -3247.96, 0.000, 0.000, 0.000, 18:39:28.034
42, -120.45, 84.30, 294.02, -3285.23, 0.000, 0.000, 0.000, 18:39:28.034
43, -129.45, 63.07, 287.02, -3249.25, 0.000, 0.000, 0.000, 18:39:28.048
44, -100.68, 68.55, 274.59, -3212.79, 0.000, 0.000, 0.000, 18:39:28.048
45, -107.76, 81.70, 290.46, -3182.76, 0.000, 0.000, 0.000, 18:39:28.063
46, -133.69, 80.25, 290.13, -3270.53, 0.000, 0.000, 0.000, 18:39:28.063
47, -124.80, 69.76, 285.17, -3298.89, 0.000, 0.000, 0.000, 18:39:28.064
48, -110.87, 64.57, 283.22, -3166.67, 0.000, 0.000, 0.000, 18:39:28.064
49, -106.97, 78.21, 289.85, -3205.94, 0.000, 0.000, 0.000, 18:39:28.078
50, -117.16, 84.28, 281.91, -3333.44, 0.000, 0.000, 0.000, 18:39:28.078
51, -133.90, 71.64, 296.39, -3220.61, 0.000, 0.000, 0.000, 18:39:28.093
52, -115.17, 61.05, 281.85, -3200.31, 0.000, 0.000, 0.000, 18:39:28.093
53, -101.77, 77.51, 278.97, -3241.37, 0.000, 0.000, 0.000, 18:39:28.094
54, -130.88, 79.09, 289.13, -3275.68, 0.000, 0.000, 0.000, 18:39:28.094
55, -118.80, 73.06, 297.28, -3260.56, 0.000, 0.000, 0.000, 18:39:28.108
56, -95.07, 71.02, 278.43, -3247.30, 0.000, 0.000, 0.000, 18:39:28.108
57, -104.57, 78.06, 280.89, -3227.23, 0.000, 0.000, 0.000, 18:39:28.123
58, -126.05, 80.69, 290.96, -3294.33, 0.000, 0.000, 0.000, 18:39:28.123
59, -130.31, 66.15, 287.44, -3272.04, 0.000, 0.000, 0.000, 18:39:28.124
60, -119.99, 59.90, 281.38, -3172.99, 0.000, 0.000, 0.000, 18:39:28.124
61, -110.24, 73.59, 278.75, -3220.24, 0.000, 0.000, 0.000, 18:39:28.138
62, -119.04, 87.23, 288.12, -3295.72, 0.000, 0.000, 0.000, 18:39:28.138
63, -139.48, 72.37, 290.56, -3223.57, 0.000, 0.000, 0.000, 18:39:28.153
64, -122.62, 56.34, 276.97, -3169.53, 0.000, 0.000, 0.000, 18:39:28.153
65, -111.62, 78.03, 275.88, -3206.86, 0.000, 0.000, 0.000, 18:39:28.154
66, -148.00, 73.49, 285.48, -3242.73, 0.000, 0.000, 0.000, 18:39:28.154
67, -142.37, 71.22, 291.49, -3238.52, 0.000, 0.000, 0.000, 18:39:28.168
68, -112.37, 61.87, 272.64, -3216.01, 0.000, 0.000, 0.000, 18:39:28.168
69, -117.89, 77.23, 276.47, -3179.81, 0.000, 0.000, 0.000, 18:39:28.183
70, -136.03, 77.31, 284.83, -3283.34, 0.000, 0.000, 0.000, 18:39:28.183
71, -141.50, 70.56, 283.75, -3232.85, 0.000, 0.000, 0.000, 18:39:28.184
72, -126.20, 62.86, 274.30, -3159.04, 0.000, 0.000, 0.000, 18:39:28.184
73, -117.56, 73.19, 280.00, -3204.57, 0.000, 0.000, 0.000, 18:39:28.198
74, -125.67, 81.17, 282.10, -3328.88, 0.000, 0.000, 0.000, 18:39:28.198
75, -144.77, 64.49, 282.64, -3216.50, 0.000, 0.000, 0.000, 18:39:28.213
76, -117.42, 57.44, 279.19, -3167.33, 0.000, 0.000, 0.000, 18:39:28.213
77, -109.10, 75.62, 275.59, -3237.11, 0.000, 0.000, 0.000, 18:39:28.213
78, -131.35, 79.77, 293.37, -3270.26, 0.000, 0.000, 0.000, 18:39:28.214
79, -132.53, 65.69, 288.60, -3235.01, 0.000, 0.000, 0.000, 18:39:28.228
80, -98.11, 65.27, 273.76, -3233.12, 0.000, 0.000, 0.000, 18:39:28.228
81, -102.93, 82.27, 289.83, -3187.66, 0.000, 0.000, 0.000, 18:39:28.243
82, -126.40, 82.02, 288.37, -3290.02, 0.000, 0.000, 0.000, 18:39:28.243
83, -125.96, 69.76, 292.17, -3260.97, 0.000, 0.000, 0.000, 18:39:28.243
84, -113.91, 64.74, 278.09, -3172.60, 0.000, 0.000, 0.000, 18:39:28.244
85, -108.47, 73.65, 275.01, -3211.37, 0.000, 0.000, 0.000, 18:39:28.258
86, -126.53, 83.63, 279.13, -3309.37, 0.000, 0.000, 0.000, 18:39:28.258
87, -137.72, 63.85, 285.66, -3236.52, 0.000, 0.000, 0.000, 18:39:28.273
88, -106.59, 68.11, 280.57, -3171.61, 0.000, 0.000, 0.000, 18:39:28.273
89, -106.29, 79.14, 281.04, -3229.95, 0.000, 0.000, 0.000, 18:39:28.273
90, -133.67, 79.53, 288.57, -3266.13, 0.000, 0.000, 0.000, 18:39:28.273
91, -132.01, 71.01, 297.69, -3224.71, 0.000, 0.000, 0.000, 18:39:28.288
92, -108.35, 65.59, 273.54, -3200.02, 0.000, 0.000, 0.000, 18:39:28.288
93, -115.11, 75.62, 277.21, -3206.38, 0.000, 0.000, 0.000, 18:39:28.318
94, -131.14, 78.49, 286.14, -3283.53, 0.000, 0.000, 0.000, 18:39:28.318
95, -135.45, 72.43, 283.55, -3242.49, 0.000, 0.000, 0.000, 18:39:28.318
96, -118.90, 58.60, 274.86, -3178.22, 0.000, 0.000, 0.000, 18:39:28.318
97, -115.17, 76.88, 277.58, -3220.30, 0.000, 0.000, 0.000, 18:39:28.319
98, -140.62, 74.89, 281.99, -3265.73, 0.000, 0.000, 0.000, 18:39:28.319
99, -132.22, 75.00, 297.63, -3227.94, 0.000, 0.000, 0.000, 18:39:28.320
100, -108.71, 62.88, 281.81, -3158.91, 0.000, 0.000, 0.000, 18:39:28.320
101, -73.33, 89.87, 270.35, -3341.19, 0.000, 0.000, 0.000, 18:39:28.333
102, -140.32, 84.25, 300.53, -3246.19, 0.000, 0.000, 0.000, 18:39:28.333
103, -142.54, 62.72, 288.76, -3264.06, 0.000, 0.000, 0.000, 18:39:28.348
104, -113.03, 64.03, 278.36, -3192.12, 0.000, 0.000, 0.000, 18:39:28.348
105, -119.51, 74.44, 280.76, -3211.31, 0.000, 0.000, 0.000, 18:39:28.363
106, -137.83, 80.30, 287.58, -3280.97, 0.000, 0.000, 0.000, 18:39:28.363
107, -136.30, 68.88, 281.29, -3274.37, 0.000, 0.000, 0.000, 18:39:28.364
108, -119.33, 65.09, 276.72, -3162.82, 0.000, 0.000, 0.000, 18:39:28.364
109, -115.56, 69.79, 272.45, -3235.84, 0.000, 0.000, 0.000, 18:39:28.378
110, -120.14, 89.77, 283.93, -3309.40, 0.000, 0.000, 0.000, 18:39:28.378
111, -137.95, 66.79, 290.81, -3235.91, 0.000, 0.000, 0.000, 18:39:28.393
112, -121.81, 64.49, 272.37, -3169.26, 0.000, 0.000, 0.000, 18:39:28.393
113, -118.00, 74.89, 275.42, -3216.81, 0.000, 0.000, 0.000, 18:39:28.394
114, -134.20, 81.04, 294.98, -3274.93, 0.000, 0.000, 0.000, 18:39:28.394
115, -134.37, 68.14, 291.49, -3240.25, 0.000, 0.000, 0.000, 18:39:28.408
116, -111.33, 62.19, 272.94, -3222.25, 0.000, 0.000, 0.000, 18:39:28.408
117, -116.34, 72.28, 281.32, -3222.38, 0.000, 0.000, 0.000, 18:39:28.423
118, -132.45, 78.43, 291.82, -3287.32, 0.000, 0.000, 0.000, 18:39:28.423
119, -127.82, 72.73, 287.09, -3288.26, 0.000, 0.000, 0.000, 18:39:28.423
120, -122.77, 55.69, 271.55, -3171.71, 0.000, 0.000, 0.000, 18:39:28.423
121, -110.11, 73.05, 279.54, -3217.76, 0.000, 0.000, 0.000, 18:39:28.438
122, -122.58, 82.84, 280.67, -3314.47, 0.000, 0.000, 0.000, 18:39:28.438
123, -138.67, 62.50, 287.44, -3232.40, 0.000, 0.000, 0.000, 18:39:28.453
124, -116.27, 57.77, 271.95, -3190.02, 0.000, 0.000, 0.000, 18:39:28.453
125, -104.41, 80.04, 277.88, -3263.52, 0.000, 0.000, 0.000, 18:39:28.454
126, -131.67, 77.92, 284.76, -3309.83, 0.000, 0.000, 0.000, 18:39:28.454
127, -125.29, 74.52, 287.39, -3261.56, 0.000, 0.000, 0.000, 18:39:28.468
128, -97.73, 65.97, 270.25, -3239.91, 0.000, 0.000, 0.000, 18:39:28.468
129, -116.64, 72.23, 281.41, -3218.75, 0.000, 0.000, 0.000, 18:39:28.483
130, -138.64, 75.17, 278.42, -3297.22, 0.000, 0.000, 0.000, 18:39:28.483
131, -135.42, 59.47, 271.04, -3282.32, 0.000, 0.000, 0.000, 18:39:28.484
132, -120.40, 56.95, 276.04, -3171.19, 0.000, 0.000, 0.000, 18:39:28.484
133, -117.70, 76.07, 275.84, -3236.30, 0.000, 0.000, 0.000, 18:39:28.498
134, -120.77, 86.80, 285.13, -3337.05, 0.000, 0.000, 0.000, 18:39:28.498
135, -139.76, 67.57, 283.04, -3252.94, 0.000, 0.000, 0.000, 18:39:28.513
136, -112.33, 62.81, 277.56, -3174.02, 0.000, 0.000, 0.000, 18:39:28.513
137, -109.34, 81.27, 279.19, -3232.92, 0.000, 0.000, 0.000, 18:39:28.513
138, -131.97, 87.15, 288.93, -3275.27, 0.000, 0.000, 0.000, 18:39:28.513
139, -134.96, 72.84, 288.50, -3251.14, 0.000, 0.000, 0.000, 18:39:28.528
140, -107.92, 66.07, 268.03, -3240.58, 0.000, 0.000, 0.000, 18:39:28.528
141, -114.14, 78.67, 284.45, -3201.45, 0.000, 0.000, 0.000, 18:39:28.543
142, -135.41, 82.41, 290.10, -3272.93, 0.000, 0.000, 0.000, 18:39:28.543
143, -138.58, 72.28, 282.47, -3236.94, 0.000, 0.000, 0.000, 18:39:28.544
144, -119.82, 63.35, 284.70, -3158.04, 0.000, 0.000, 0.000, 18:39:28.544
145, -119.06, 77.46, 278.46, -3210.06, 0.000, 0.000, 0.000, 18:39:28.558
146, -127.20, 86.87, 280.19, -3305.36, 0.000, 0.000, 0.000, 18:39:28.558
147, -139.06, 71.76, 296.34, -3201.41, 0.000, 0.000, 0.000, 18:39:28.573
148, -114.36, 66.89, 283.97, -3149.89, 0.000, 0.000, 0.000, 18:39:28.573
149, -107.72, 80.01, 283.13, -3232.23, 0.000, 0.000, 0.000, 18:39:28.573
150, -126.62, 87.93, 293.69, -3291.00, 0.000, 0.000, 0.000, 18:39:28.573
151, -129.77, 72.81, 294.60, -3249.63, 0.000, 0.000, 0.000, 18:39:28.588
152, -97.30, 61.42, 282.68, -3222.86, 0.000, 0.000, 0.000, 18:39:28.588
153, -112.03, 65.89, 285.03, -3228.58, 0.000, 0.000, 0.000, 18:39:28.603
154, -128.67, 96.18, 296.07, -3278.27, 0.000, 0.000, 0.000, 18:39:28.603
155, -137.32, 70.17, 280.24, -3279.81, 0.000, 0.000, 0.000, 18:39:28.604
156, -116.56, 59.36, 275.97, -3190.25, 0.000, 0.000, 0.000, 18:39:28.604
157, -96.85, 85.20, 298.11, -3214.24, 0.000, 0.000, 0.000, 18:39:28.633
158, -111.15, 98.83, 288.32, -3321.26, 0.000, 0.000, 0.000, 18:39:28.633
159, -132.53, 83.28, 291.59, -3221.68, 0.000, 0.000, 0.000, 18:39:28.633
160, -98.97, 75.82, 285.16, -3186.92, 0.000, 0.000, 0.000, 18:39:28.633
161, -102.87, 86.09, 279.02, -3230.51, 0.000, 0.000, 0.000, 18:39:28.634
162, -127.74, 74.77, 292.88, -3278.56, 0.000, 0.000, 0.000, 18:39:28.634
163, -125.63, 63.49, 291.51, -3241.11, 0.000, 0.000, 0.000, 18:39:28.648
164, -91.53, 65.77, 272.71, -3257.31, 0.000, 0.000, 0.000, 18:39:28.648
165, -116.59, 70.32, 282.46, -3234.42, 0.000, 0.000, 0.000, 18:39:28.663
166, -128.54, 77.57, 290.30, -3283.49, 0.000, 0.000, 0.000, 18:39:28.663
167, -130.03, 59.18, 282.56, -3272.43, 0.000, 0.000, 0.000, 18:39:28.663
168, -114.04, 56.31, 278.23, -3188.59, 0.000, 0.000, 0.000, 18:39:28.664
169, -110.44, 75.18, 281.09, -3220.99, 0.000, 0.000, 0.000, 18:39:28.678
170, -117.79, 83.08, 283.36, -3326.96, 0.000, 0.000, 0.000, 18:39:28.678
171, -144.06, 64.69, 284.54, -3225.86, 0.000, 0.000, 0.000, 18:39:28.693
172, -122.23, 57.69, 279.55, -3186.42, 0.000, 0.000, 0.000, 18:39:28.693
173, -114.41, 72.06, 273.79, -3263.46, 0.000, 0.000, 0.000, 18:39:28.694
174, -138.29, 75.82, 288.26, -3277.87, 0.000, 0.000, 0.000, 18:39:28.694
175, -136.05, 64.03, 285.47, -3258.52, 0.000, 0.000, 0.000, 18:39:28.708
176, -110.29, 62.08, 273.70, -3200.76, 0.000, 0.000, 0.000, 18:39:28.708
177, -112.64, 79.64, 286.80, -3200.70, 0.000, 0.000, 0.000, 18:39:28.723
178, -131.73, 76.43, 287.52, -3276.09, 0.000, 0.000, 0.000, 18:39:28.723
179, -129.30, 71.60, 286.57, -3252.91, 0.000, 0.000, 0.000, 18:39:28.723
180, -123.86, 61.06, 281.57, -3150.73, 0.000, 0.000, 0.000, 18:39:28.724
181, -112.00, 71.12, 280.72, -3221.39, 0.000, 0.000, 0.000, 18:39:28.738
182, -121.01, 82.45, 282.36, -3324.77, 0.000, 0.000, 0.000, 18:39:28.738
183, -143.28, 63.31, 287.60, -3213.75, 0.000, 0.000, 0.000, 18:39:28.753
184, -130.64, 50.48, 270.13, -3178.58, 0.000, 0.000, 0.000, 18:39:28.753
185, -119.35, 68.15, 272.66, -3216.70, 0.000, 0.000, 0.000, 18:39:28.753
186, -144.20, 77.48, 289.01, -3259.77, 0.000, 0.000, 0.000, 18:39:28.753
187, -138.96, 58.33, 286.91, -3248.35, 0.000, 0.000, 0.000, 18:39:28.768
188, -109.74, 64.50, 268.28, -3219.75, 0.000, 0.000, 0.000, 18:39:28.768
189, -110.40, 76.49, 285.01, -3218.51, 0.000, 0.000, 0.000, 18:39:28.783
190, -123.65, 73.62, 298.70, -3304.73, 0.000, 0.000, 0.000, 18:39:28.783
191, -126.99, 77.10, 282.33, -3282.06, 0.000, 0.000, 0.000, 18:39:28.784
192, -105.23, 74.43, 282.37, -3163.97, 0.000, 0.000, 0.000, 18:39:28.784
193, -104.09, 85.87, 286.80, -3224.56, 0.000, 0.000, 0.000, 18:39:28.798
194, -116.35, 94.49, 288.82, -3320.30, 0.000, 0.000, 0.000, 18:39:28.798
195, -140.17, 64.84, 289.72, -3248.83, 0.000, 0.000, 0.000, 18:39:28.813
196, -111.10, 64.63, 275.78, -3214.63, 0.000, 0.000, 0.000, 18:39:28.813
197, -101.44, 79.10, 282.65, -3263.11, 0.000, 0.000, 0.000, 18:39:28.814
198, -128.62, 73.51, 288.71, -3281.88, 0.000, 0.000, 0.000, 18:39:28.814
199, -136.58, 58.91, 283.41, -3264.92, 0.000, 0.000, 0.000, 18:39:28.828
200, -102.35, 65.32, 275.00, -3226.68, 0.000, 0.000, 0.000, 18:39:28.828
0, -108.73, 83.47, 285.32, -3236.50, 0.000, 0.000, 0.000, 18:39:28.829
1, -118.91, 83.95, 296.66, -3315.06, 0.000, 0.000, 0.000, 18:39:28.843
2, -117.82, 70.81, 288.58, -3272.18, 0.000, 0.000, 0.000, 18:39:28.843
3, -123.77, 55.32, 274.70, -3166.30, 0.000, 0.000, 0.000, 18:39:28.858
4, -115.97, 72.03, 279.77, -3215.54, 0.000, 0.000, 0.000, 18:39:28.858
5, -127.34, 78.06, 284.77, -3325.78, 0.000, 0.000, 0.000, 18:39:28.859
6, -138.82, 64.88, 285.60, -3226.94, 0.000, 0.000, 0.000, 18:39:28.859
7, -118.53, 57.13, 276.36, -3194.94, 0.000, 0.000, 0.000, 18:39:28.873
8, -99.44, 78.32, 279.50, -3269.42, 0.000, 0.000, 0.000, 18:39:28.873
9, -130.53, 77.96, 290.67, -3284.51, 0.000, 0.000, 0.000, 18:39:28.888
10, -135.87, 60.15, 286.94, -3245.29, 0.000, 0.000, 0.000, 18:39:28.888
11, -105.30, 67.08, 277.51, -3221.48, 0.000, 0.000, 0.000, 18:39:28.889
12, -113.35, 71.65, 274.91, -3230.68, 0.000, 0.000, 0.000, 18:39:28.889
13, -133.86, 75.71, 289.77, -3285.08, 0.000, 0.000, 0.000, 18:39:28.903
14, -125.41, 66.54, 281.07, -3293.76, 0.000, 0.000, 0.000, 18:39:28.903
15, -116.68, 59.99, 271.38, -3160.82, 0.000, 0.000, 0.000, 18:39:28.918
16, -111.07, 75.44, 277.29, -3240.72, 0.000, 0.000, 0.000, 18:39:28.918
17, -128.32, 87.79, 288.31, -3334.27, 0.000, 0.000, 0.000, 18:39:28.919
18, -141.58, 59.45, 278.70, -3252.61, 0.000, 0.000, 0.000, 18:39:28.919
19, -118.62, 56.40, 273.68, -3201.56, 0.000, 0.000, 0.000, 18:39:28.948
20, -112.41, 68.17, 257.67, -3324.99, 0.000, 0.000, 0.000, 18:39:28.948
21, -135.97, 80.54, 286.11, -3285.02, 0.000, 0.000, 0.000, 18:39:28.948
22, -129.65, 68.94, 287.27, -3255.58, 0.000, 0.000, 0.000, 18:39:28.948
23, -115.98, 65.33, 277.19, -3206.58, 0.000, 0.000, 0.000, 18:39:28.949
24, -112.97, 82.45, 285.12, -3237.29, 0.000, 0.000, 0.000, 18:39:28.949
25, -128.93, 80.63, 290.41, -3301.14, 0.000, 0.000, 0.000, 18:39:28.963
26, -108.73, 76.75, 277.44, -3323.05, 0.000, 0.000, 0.000, 18:39:28.963
27, -114.84, 66.18, 283.09, -3174.35, 0.000, 0.000, 0.000, 18:39:28.978
28, -114.21, 78.00, 281.16, -3240.47, 0.000, 0.000, 0.000, 18:39:28.978
29, -130.45, 78.10, 287.98, -3334.08, 0.000, 0.000, 0.000, 18:39:28.979
30, -136.72, 62.53, 279.49, -3249.83, 0.000, 0.000, 0.000, 18:39:28.979
31, -110.59, 63.96, 273.85, -3192.74, 0.000, 0.000, 0.000, 18:39:28.993
32, -91.76, 82.32, 271.13, -3296.96, 0.000, 0.000, 0.000, 18:39:28.993
33, -130.10, 78.48, 290.18, -3281.79, 0.000, 0.000, 0.000, 18:39:29.008
34, -134.37, 62.75, 282.80, -3223.69, 0.000, 0.000, 0.000, 18:39:29.008
35, -112.93, 61.40, 271.40, -3195.58, 0.000, 0.000, 0.000, 18:39:29.009
36, -110.69, 72.97, 284.47, -3231.59, 0.000, 0.000, 0.000, 18:39:29.009
37, -128.35, 81.09, 294.46, -3310.11, 0.000, 0.000, 0.000, 18:39:29.023
38, -116.09, 75.86, 287.50, -3285.60, 0.000, 0.000, 0.000, 18:39:29.023
39, -126.40, 52.04, 276.06, -3173.07, 0.000, 0.000, 0.000, 18:39:29.038
40, -115.18, 79.11, 279.41, -3230.64, 0.000, 0.000, 0.000, 18:39:29.038
41, -127.57, 80.28, 287.99, -3304.41, 0.000, 0.000, 0.000, 18:39:29.039
42, -141.89, 63.26, 290.53, -3206.80, 0.000, 0.000, 0.000, 18:39:29.039
43, -116.92, 64.85, 288.54, -3156.77, 0.000, 0.000, 0.000, 18:39:29.053
44, -108.73, 76.73, 277.91, -3266.32, 0.000, 0.000, 0.000, 18:39:29.053
45, -139.90, 76.68, 287.34, -3281.28, 0.000, 0.000, 0.000, 18:39:29.068
46, -136.77, 64.64, 283.87, -3243.97, 0.000, 0.000, 0.000, 18:39:29.068
47, -113.09, 67.44, 269.61, -3178.77, 0.000, 0.000, 0.000, 18:39:29.069
48, -122.76, 72.97, 275.50, -3207.49, 0.000, 0.000, 0.000, 18:39:29.069
49, -137.20, 78.09, 285.27, -3287.47, 0.000, 0.000, 0.000, 18:39:29.083
50, -125.43, 73.15, 279.35, -3263.48, 0.000, 0.000, 0.000, 18:39:29.083
51, -117.03, 66.61, 272.83, -3172.89, 0.000, 0.000, 0.000, 18:39:29.098
52, -114.80, 79.82, 279.99, -3218.92, 0.000, 0.000, 0.000, 18:39:29.098
53, -133.43, 86.16, 281.57, -3333.19, 0.000, 0.000, 0.000, 18:39:29.099
54, -136.09, 62.51, 278.56, -3247.71, 0.000, 0.000, 0.000, 18:39:29.099
55, -112.34, 64.93, 278.32, -3168.69, 0.000, 0.000, 0.000, 18:39:29.113
56, -106.50, 80.44, 273.61, -3286.27, 0.000, 0.000, 0.000, 18:39:29.113
57, -142.20, 76.89, 285.72, -3274.03, 0.000, 0.000, 0.000, 18:39:29.128
58, -135.74, 69.35, 285.79, -3252.26, 0.000, 0.000, 0.000, 18:39:29.128
59, -114.66, 62.49, 266.44, -3204.25, 0.000, 0.000, 0.000, 18:39:29.128
60, -129.16, 69.49, 273.04, -3202.88, 0.000, 0.000, 0.000, 18:39:29.129
61, -140.98, 76.85, 286.12, -3285.22, 0.000, 0.000, 0.000, 18:39:29.143
62, -129.19, 68.94, 282.03, -3265.23, 0.000, 0.000, 0.000, 18:39:29.143
63, -119.70, 58.37, 278.80, -3159.47, 0.000, 0.000, 0.000, 18:39:29.158
64, -102.91, 76.08, 291.39, -3242.25, 0.000, 0.000, 0.000, 18:39:29.158
65, -125.87, 63.74, 291.85, -3337.02, 0.000, 0.000, 0.000, 18:39:29.158
66, -133.86, 63.06, 285.05, -3230.11, 0.000, 0.000, 0.000, 18:39:29.159
67, -110.54, 70.75, 277.70, -3179.85, 0.000, 0.000, 0.000, 18:39:29.173
68, -90.93, 84.27, 282.85, -3264.38, 0.000, 0.000, 0.000, 18:39:29.173
69, -125.85, 84.96, 296.53, -3256.37, 0.000, 0.000, 0.000, 18:39:29.188
70, -130.23, 69.04, 289.91, -3225.84, 0.000, 0.000, 0.000, 18:39:29.188
71, -106.31, 66.56, 280.77, -3174.69, 0.000, 0.000, 0.000, 18:39:29.189
72, -102.58, 97.30, 295.08, -3224.69, 0.000, 0.000, 0.000, 18:39:29.189
73, -127.82, 92.00, 297.86, -3291.72, 0.000, 0.000, 0.000, 18:39:29.203
74, -118.10, 79.07, 285.57, -3276.61, 0.000, 0.000, 0.000, 18:39:29.203
75, -110.96, 72.29, 284.87, -3137.96, 0.000, 0.000, 0.000, 18:39:29.218
76, -121.09, 75.58, 278.17, -3204.38, 0.000, 0.000, 0.000, 18:39:29.218
77, -124.64, 90.34, 289.34, -3283.07, 0.000, 0.000, 0.000, 18:39:29.219
78, -133.55, 74.20, 287.96, -3216.19, 0.000, 0.000, 0.000, 18:39:29.219
79, -117.68, 62.35, 271.33, -3191.64, 0.000, 0.000, 0.000, 18:39:29.233
80, -93.77, 88.14, 280.18, -3295.46, 0.000, 0.000, 0.000, 18:39:29.233
81, -131.99, 79.84, 292.68, -3287.08, 0.000, 0.000, 0.000, 18:39:29.248
82, -132.87, 64.96, 280.07, -3264.85, 0.000, 0.000, 0.000, 18:39:29.248
83, -110.07, 63.21, 268.00, -3209.43, 0.000, 0.000, 0.000, 18:39:29.249
84, -116.92, 77.29, 279.57, -3242.21, 0.000, 0.000, 0.000, 18:39:29.249
85, -129.90, 84.42, 302.84, -3266.63, 0.000, 0.000, 0.000, 18:39:29.278
86, -132.04, 65.16, 276.15, -3287.28, 0.000, 0.000, 0.000, 18:39:29.278
87, -115.58, 63.70, 282.43, -3165.90, 0.000, 0.000, 0.000, 18:39:29.278
88, -108.30, 79.12, 287.57, -3233.85, 0.000, 0.000, 0.000, 18:39:29.278
89, -125.02, 81.75, 297.08, -3289.28, 0.000, 0.000, 0.000, 18:39:29.279
90, -125.62, 66.66, 289.46, -3215.67, 0.000, 0.000, 0.000, 18:39:29.279
91, -112.84, 64.43, 277.60, -3168.58, 0.000, 0.000, 0.000, 18:39:29.293
92, -92.50, 79.06, 273.17, -3298.27, 0.000, 0.000, 0.000, 18:39:29.293
93, -140.11, 80.39, 294.81, -3267.12, 0.000, 0.000, 0.000, 18:39:29.308
94, -125.71, 63.86, 289.16, -3245.27, 0.000, 0.000, 0.000, 18:39:29.308
95, -105.24, 64.69, 273.78, -3187.58, 0.000, 0.000, 0.000, 18:39:29.309
96, -122.97, 73.07, 275.72, -3203.74, 0.000, 0.000, 0.000, 18:39:29.309
97, -129.31, 77.88, 299.22, -3276.83, 0.000, 0.000, 0.000, 18:39:29.323
98, -120.17, 65.99, 284.11, -3256.15, 0.000, 0.000, 0.000, 18:39:29.323
99, -101.82, 41.59, 294.21, -3182.70, 0.000, 0.000, 0.000, 18:39:29.338
100, -108.00, 73.51, 292.49, -3251.74, 0.000, 0.000, 0.000, 18:39:29.338
101, -134.59, 96.07, 287.59, -3303.81, 0.000, 0.000, 0.000, 18:39:29.339
102, -134.96, 72.97, 284.99, -3218.82, 0.000, 0.000, 0.000, 18:39:29.339
103, -119.01, 65.20, 271.36, -3164.43, 0.000, 0.000, 0.000, 18:39:29.353
104, -105.61, 99.74, 278.43, -3270.45, 0.000, 0.000, 0.000, 18:39:29.353
105, -135.20, 80.90, 286.23, -3285.97, 0.000, 0.000, 0.000, 18:39:29.368
106, -134.50, 61.22, 283.45, -3235.33, 0.000, 0.000, 0.000, 18:39:29.368
107, -114.52, 63.02, 272.69, -3169.53, 0.000, 0.000, 0.000, 18:39:29.369
108, -119.31, 70.97, 283.52, -3239.98, 0.000, 0.000, 0.000, 18:39:29.369
109, -132.40, 79.97, 294.24, -3274.29, 0.000, 0.000, 0.000, 18:39:29.383
110, -124.54, 64.63, 283.99, -3250.02, 0.000, 0.000, 0.000, 18:39:29.383
111, -121.90, 58.34, 276.20, -3163.82, 0.000, 0.000, 0.000, 18:39:29.398
112, -118.66, 65.12, 272.75, -3274.85, 0.000, 0.000, 0.000, 18:39:29.398
113, -127.40, 85.24, 288.72, -3302.07, 0.000, 0.000, 0.000, 18:39:29.399
114, -131.88, 63.67, 289.72, -3205.14, 0.000, 0.000, 0.000, 18:39:29.399
115, -113.72, 60.84, 277.93, -3176.44, 0.000, 0.000, 0.000, 18:39:29.413
116, -108.14, 77.17, 274.70, -3272.13, 0.000, 0.000, 0.000, 18:39:29.413
117, -136.45, 75.03, 293.12, -3292.89, 0.000, 0.000, 0.000, 18:39:29.428
118, -142.02, 55.39, 276.68, -3261.40, 0.000, 0.000, 0.000, 18:39:29.428
119, -105.86, 63.07, 273.58, -3215.03, 0.000, 0.000, 0.000, 18:39:29.429
120, -108.30, 78.76, 281.24, -3225.98, 0.000, 0.000, 0.000, 18:39:29.429
121, -134.90, 75.34, 288.83, -3318.32, 0.000, 0.000, 0.000, 18:39:29.443
122, -115.98, 67.44, 281.56, -3266.25, 0.000, 0.000, 0.000, 18:39:29.443
123, -112.96, 59.10, 279.47, -3171.68, 0.000, 0.000, 0.000, 18:39:29.458
124, -109.87, 69.88, 276.13, -3275.94, 0.000, 0.000, 0.000, 18:39:29.458
125, -126.95, 81.19, 285.73, -3316.53, 0.000, 0.000, 0.000, 18:39:29.458
126, -137.83, 62.05, 282.41, -3224.96, 0.000, 0.000, 0.000, 18:39:29.458
127, -110.68, 65.67, 282.84, -3183.12, 0.000, 0.000, 0.000, 18:39:29.473
128, -103.12, 84.76, 276.41, -3270.09, 0.000, 0.000, 0.000, 18:39:29.473
129, -141.49, 71.36, 285.07, -3285.14, 0.000, 0.000, 0.000, 18:39:29.488
130, -135.78, 58.28, 282.39, -3245.71, 0.000, 0.000, 0.000, 18:39:29.488
131, -104.57, 63.64, 280.22, -3195.41, 0.000, 0.000, 0.000, 18:39:29.489
132, -117.94, 71.95, 283.06, -3236.11, 0.000, 0.000, 0.000, 18:39:29.489
133, -129.14, 85.53, 299.78, -3262.09, 0.000, 0.000, 0.000, 18:39:29.503
134, -122.76, 69.30, 283.84, -3253.08, 0.000, 0.000, 0.000, 18:39:29.503
135, -109.45, 58.25, 284.60, -3168.53, 0.000, 0.000, 0.000, 18:39:29.518
136, -108.32, 80.48, 287.44, -3236.89, 0.000, 0.000, 0.000, 18:39:29.518
137, -127.25, 78.43, 287.97, -3317.60, 0.000, 0.000, 0.000, 18:39:29.518
138, -133.65, 56.95, 280.33, -3266.63, 0.000, 0.000, 0.000, 18:39:29.518
139, -109.91, 56.39, 272.94, -3222.50, 0.000, 0.000, 0.000, 18:39:29.533
140, -105.37, 80.19, 272.63, -3272.76, 0.000, 0.000, 0.000, 18:39:29.533
141, -142.14, 78.52, 295.04, -3261.73, 0.000, 0.000, 0.000, 18:39:29.548
142, -141.00, 58.09, 279.18, -3218.58, 0.000, 0.000, 0.000, 18:39:29.548
143, -115.57, 60.30, 266.08, -3193.07, 0.000, 0.000, 0.000, 18:39:29.549
144, -114.65, 79.00, 283.43, -3226.04, 0.000, 0.000, 0.000, 18:39:29.549
145, -133.31, 79.92, 291.12, -3295.56, 0.000, 0.000, 0.000, 18:39:29.563
146, -120.67, 67.86, 280.16, -3289.86, 0.000, 0.000, 0.000, 18:39:29.563
147, -122.95, 62.41, 273.91, -3165.72, 0.000, 0.000, 0.000, 18:39:29.593
148, -120.23, 70.30, 276.03, -3251.58, 0.000, 0.000, 0.000, 18:39:29.593
149, -128.25, 86.27, 284.90, -3311.00, 0.000, 0.000, 0.000, 18:39:29.593
150, -140.73, 60.68, 282.39, -3229.64, 0.000, 0.000, 0.000, 18:39:29.593
151, -106.68, 69.97, 286.98, -3181.08, 0.000, 0.000, 0.000, 18:39:29.594
152, -113.77, 80.95, 280.77, -3244.39, 0.000, 0.000, 0.000, 18:39:29.594
153, -130.89, 83.96, 292.85, -3268.50, 0.000, 0.000, 0.000, 18:39:29.595
154, -131.26, 63.74, 289.66, -3231.76, 0.000, 0.000, 0.000, 18:39:29.595
155, -78.44, 77.46, 267.95, -3276.12, 0.000, 0.000, 0.000, 18:39:29.608
156, -125.56, 76.55, 292.33, -3205.61, 0.000, 0.000, 0.000, 18:39:29.608
157, -131.99, 83.62, 293.85, -3273.49, 0.000, 0.000, 0.000, 18:39:29.623
158, -122.85, 69.61, 291.81, -3230.49, 0.000, 0.000, 0.000, 18:39:29.623
159, -111.26, 63.81, 285.45, -3151.43, 0.000, 0.000, 0.000, 18:39:29.638
160, -114.26, 69.89, 288.77, -3220.67, 0.000, 0.000, 0.000, 18:39:29.638
161, -134.53, 70.32, 286.97, -3314.10, 0.000, 0.000, 0.000, 18:39:29.639
162, -131.77, 60.70, 290.56, -3204.39, 0.000, 0.000, 0.000, 18:39:29.639
163, -114.20, 57.17, 275.17, -3169.59, 0.000, 0.000, 0.000, 18:39:29.653
164, -99.67, 84.23, 277.76, -3275.84, 0.000, 0.000, 0.000, 18:39:29.653
165, -127.17, 87.32, 296.51, -3304.45, 0.000, 0.000, 0.000, 18:39:29.668
166, -122.24, 76.43, 292.36, -3246.42, 0.000, 0.000, 0.000, 18:39:29.668
167, -95.81, 75.18, 277.46, -3207.88, 0.000, 0.000, 0.000, 18:39:29.669
168, -108.73, 84.68, 285.03, -3245.06, 0.000, 0.000, 0.000, 18:39:29.669
169, -128.06, 79.73, 290.38, -3316.48, 0.000, 0.000, 0.000, 18:39:29.683
170, -113.53, 71.48, 277.38, -3303.42, 0.000, 0.000, 0.000, 18:39:29.683
171, -108.86, 68.30, 285.20, -3137.12, 0.000, 0.000, 0.000, 18:39:29.698
172, -107.85, 80.85, 286.06, -3233.82, 0.000, 0.000, 0.000, 18:39:29.698
173, -125.28, 85.36, 289.85, -3307.74, 0.000, 0.000, 0.000, 18:39:29.699
174, -133.15, 63.98, 290.12, -3229.33, 0.000, 0.000, 0.000, 18:39:29.699
175, -111.23, 65.67, 278.77, -3186.55, 0.000, 0.000, 0.000, 18:39:29.716
176, -97.95, 84.42, 272.69, -3294.02, 0.000, 0.000, 0.000, 18:39:29.716
177, -135.49, 79.08, 288.89, -3283.00, 0.000, 0.000, 0.000, 18:39:29.728
178, -132.58, 63.17, 283.23, -3222.55, 0.000, 0.000, 0.000, 18:39:29.728
179, -109.55, 64.87, 275.66, -3192.98, 0.000, 0.000, 0.000, 18:39:29.728
180, -109.25, 80.40, 285.84, -3245.22, 0.000, 0.000, 0.000, 18:39:29.729
181, -120.56, 85.31, 298.55, -3292.31, 0.000, 0.000, 0.000, 18:39:29.743
182, -106.90, 75.34, 284.98, -3292.54, 0.000, 0.000, 0.000, 18:39:29.743
183, -108.43, 66.85, 277.73, -3190.11, 0.000, 0.000, 0.000, 18:39:29.758
184, -108.62, 84.23, 288.88, -3253.58, 0.000, 0.000, 0.000, 18:39:29.758
185, -127.36, 81.28, 288.16, -3327.40, 0.000, 0.000, 0.000, 18:39:29.759
186, -141.55, 57.24, 276.63, -3249.36, 0.000, 0.000, 0.000, 18:39:29.759
187, -100.41, 72.97, 285.00, -3175.18, 0.000, 0.000, 0.000, 18:39:29.773
188, -95.17, 90.70, 286.34, -3298.17, 0.000, 0.000, 0.000, 18:39:29.773
189, -134.54, 83.60, 296.50, -3271.91, 0.000, 0.000, 0.000, 18:39:29.788
190, -121.64, 72.44, 297.86, -3233.81, 0.000, 0.000, 0.000, 18:39:29.788
191, -108.05, 68.41, 277.83, -3213.01, 0.000, 0.000, 0.000, 18:39:29.789
192, -107.62, 87.53, 296.77, -3224.07, 0.000, 0.000, 0.000, 18:39:29.789
193, -130.54, 82.68, 299.71, -3281.01, 0.000, 0.000, 0.000, 18:39:29.803
194, -119.27, 67.25, 283.81, -3256.88, 0.000, 0.000, 0.000, 18:39:29.803
195, -109.64, 69.45, 284.61, -3168.15, 0.000, 0.000, 0.000, 18:39:29.818
196, -111.95, 74.32, 274.73, -3287.87, 0.000, 0.000, 0.000, 18:39:29.818
197, -115.23, 90.58, 295.50, -3323.04, 0.000, 0.000, 0.000, 18:39:29.818
198, -115.58, 74.17, 299.41, -3209.20, 0.000, 0.000, 0.000, 18:39:29.819
199, -106.93, 63.76, 272.86, -3204.65, 0.000, 0.000, 0.000, 18:39:29.833
200, -100.58, 90.49, 280.69, -3290.50, 0.000, 0.000, 0.000, 18:39:29.833
0, -128.59, 78.81, 290.47, -3309.78, 0.000, 0.000, 0.000, 18:39:29.834
1, -130.63, 66.16, 278.59, -3248.44, 0.000, 0.000, 0.000, 18:39:29.848
2, -102.46, 75.85, 267.80, -3227.03, 0.000, 0.000, 0.000, 18:39:29.848
3, -114.70, 82.59, 282.24, -3248.01, 0.000, 0.000, 0.000, 18:39:29.863
4, -132.64, 84.61, 297.49, -3292.87, 0.000, 0.000, 0.000, 18:39:29.863
5, -138.12, 61.97, 274.23, -3250.21, 0.000, 0.000, 0.000, 18:39:29.863
6, -112.01, 68.44, 285.37, -3160.11, 0.000, 0.000, 0.000, 18:39:29.864
7, -114.97, 75.66, 284.86, -3238.63, 0.000, 0.000, 0.000, 18:39:29.878
8, -123.91, 86.92, 285.57, -3307.22, 0.000, 0.000, 0.000, 18:39:29.878
9, -135.54, 67.27, 286.05, -3210.21, 0.000, 0.000, 0.000, 18:39:29.908
10, -107.37, 69.81, 282.12, -3171.84, 0.000, 0.000, 0.000, 18:39:29.908
11, -107.23, 81.02, 285.55, -3254.06, 0.000, 0.000, 0.000, 18:39:29.909
12, -131.11, 88.54, 299.37, -3247.90, 0.000, 0.000, 0.000, 18:39:29.909
13, -132.04, 66.09, 284.22, -3228.33, 0.000, 0.000, 0.000, 18:39:29.909
14, -109.04, 66.23, 280.56, -3168.24, 0.000, 0.000, 0.000, 18:39:29.909
15, -118.77, 77.52, 279.92, -3242.99, 0.000, 0.000, 0.000, 18:39:29.910
16, -128.77, 85.15, 293.46, -3292.92, 0.000, 0.000, 0.000, 18:39:29.910
17, -93.08, 80.27, 272.87, -3374.13, 0.000, 0.000, 0.000, 18:39:29.923
18, -113.21, 68.71, 288.74, -3143.82, 0.000, 0.000, 0.000, 18:39:29.923
19, -108.57, 78.75, 288.20, -3220.61, 0.000, 0.000, 0.000, 18:39:29.938
20, -127.23, 83.54, 296.12, -3279.70, 0.000, 0.000, 0.000, 18:39:29.938
21, -130.01, 65.25, 288.92, -3234.14, 0.000, 0.000, 0.000, 18:39:29.953
22, -111.06, 65.05, 279.18, -3174.43, 0.000, 0.000, 0.000, 18:39:29.953
23, -110.47, 85.87, 284.65, -3248.12, 0.000, 0.000, 0.000, 18:39:29.954
24, -129.13, 85.87, 301.96, -3273.47, 0.000, 0.000, 0.000, 18:39:29.954
25, -122.99, 73.42, 293.36, -3218.56, 0.000, 0.000, 0.000, 18:39:29.968
26, -101.26, 69.31, 274.26, -3221.67, 0.000, 0.000, 0.000, 18:39:29.968
27, -118.74, 77.22, 282.46, -3215.80, 0.000, 0.000, 0.000, 18:39:29.983
28, -141.04, 86.07, 290.05, -3247.90, 0.000, 0.000, 0.000, 18:39:29.983
29, -125.59, 68.49, 285.48, -3241.63, 0.000, 0.000, 0.000, 18:39:29.983
30, -105.75, 75.07, 285.27, -3162.32, 0.000, 0.000, 0.000, 18:39:29.983
31, -110.53, 78.60, 289.43, -3229.48, 0.000, 0.000, 0.000, 18:39:29.998
32, -125.74, 82.95, 287.18, -3307.78, 0.000, 0.000, 0.000, 18:39:29.998
33, -129.68, 63.18, 292.34, -3196.37, 0.000, 0.000, 0.000, 18:39:30.013
34, -111.07, 65.46, 279.37, -3177.62, 0.000, 0.000, 0.000, 18:39:30.013
35, -112.59, 80.56, 279.26, -3258.22, 0.000, 0.000, 0.000, 18:39:30.013
36, -132.84, 83.24, 296.91, -3275.24, 0.000, 0.000, 0.000, 18:39:30.013
37, -127.04, 70.30, 292.23, -3211.89, 0.000, 0.000, 0.000, 18:39:30.028
38, -99.23, 71.13, 270.49, -3234.45, 0.000, 0.000, 0.000, 18:39:30.028
39, -122.13, 69.87, 274.45, -3258.79, 0.000, 0.000, 0.000, 18:39:30.043
40, -136.73, 75.84, 285.60, -3299.68, 0.000, 0.000, 0.000, 18:39:30.043
41, -124.62, 66.26, 284.26, -3252.99, 0.000, 0.000, 0.000, 18:39:30.044
42, -111.96, 67.18, 276.56, -3175.63, 0.000, 0.000, 0.000, 18:39:30.044
43, -116.19, 81.06, 279.38, -3247.32, 0.000, 0.000, 0.000, 18:39:30.058
44, -125.05, 83.88, 287.30, -3359.89, 0.000, 0.000, 0.000, 18:39:30.058
45, -138.55, 68.72, 285.65, -3221.07, 0.000, 0.000, 0.000, 18:39:30.073
46, -108.19, 65.15, 277.70, -3182.52, 0.000, 0.000, 0.000, 18:39:30.073
47, -106.19, 92.59, 284.18, -3250.90, 0.000, 0.000, 0.000, 18:39:30.073
48, -134.31, 84.27, 294.60, -3259.43, 0.000, 0.000, 0.000, 18:39:30.073
49, -123.82, 70.27, 289.37, -3247.51, 0.000, 0.000, 0.000, 18:39:30.088
50, -96.35, 70.34, 274.71, -3223.62, 0.000, 0.000, 0.000, 18:39:30.088
51, -113.71, 81.23, 291.27, -3228.64, 0.000, 0.000, 0.000, 18:39:30.103
52, -132.88, 80.53, 294.85, -3282.41, 0.000, 0.000, 0.000, 18:39:30.103
53, -123.23, 64.63, 289.57, -3241.38, 0.000, 0.000, 0.000, 18:39:30.104
54, -112.24, 65.66, 283.75, -3166.15, 0.000, 0.000, 0.000, 18:39:30.104
55, -106.57, 88.60, 292.94, -3233.32, 0.000, 0.000, 0.000, 18:39:30.118
56, -116.84, 88.65, 291.91, -3323.76, 0.000, 0.000, 0.000, 18:39:30.118
57, -129.97, 72.70, 291.46, -3214.64, 0.000, 0.000, 0.000, 18:39:30.133
58, -109.41, 67.71, 283.94, -3165.61, 0.000, 0.000, 0.000, 18:39:30.133
59, -105.21, 87.40, 284.41, -3267.78, 0.000, 0.000, 0.000, 18:39:30.134
60, -132.18, 79.64, 289.43, -3301.84, 0.000, 0.000, 0.000, 18:39:30.134
61, -128.24, 60.61, 285.87, -3212.02, 0.000, 0.000, 0.000, 18:39:30.148
62, -102.66, 65.29, 277.35, -3232.00, 0.000, 0.000, 0.000, 18:39:30.148
63, -114.32, 83.26, 290.04, -3232.44, 0.000, 0.000, 0.000, 18:39:30.163
64, -137.29, 82.27, 295.26, -3274.09, 0.000, 0.000, 0.000, 18:39:30.163
65, -137.00, 66.74, 276.13, -3243.65, 0.000, 0.000, 0.000, 18:39:30.163
66, -114.22, 71.68, 275.73, -3155.26, 0.000, 0.000, 0.000, 18:39:30.163
67, -119.06, 80.19, 283.38, -3233.97, 0.000, 0.000, 0.000, 18:39:30.178
68, -125.91, 82.39, 285.94, -3351.14, 0.000, 0.000, 0.000, 18:39:30.178
69, -128.67, 67.79, 288.58, -3226.57, 0.000, 0.000, 0.000, 18:39:30.195
70, -107.17, 75.15, 279.40, -3174.45, 0.000, 0.000, 0.000, 18:39:30.195
71, -111.70, 88.87, 284.25, -3247.62, 0.000, 0.000, 0.000, 18:39:30.195
72, -135.89, 86.36, 299.89, -3265.26, 0.000, 0.000, 0.000, 18:39:30.195
73, -125.17, 69.46, 294.06, -3232.45, 0.000, 0.000, 0.000, 18:39:30.208
74, -98.72, 76.30, 274.62, -3226.56, 0.000, 0.000, 0.000, 18:39:30.208
75, -115.38, 83.62, 286.82, -3215.75, 0.000, 0.000, 0.000, 18:39:30.238
76, -138.92, 80.53, 289.84, -3270.46, 0.000, 0.000, 0.000, 18:39:30.238
77, -126.12, 71.45, 286.03, -3211.47, 0.000, 0.000, 0.000, 18:39:30.238
78, -121.06, 61.89, 272.71, -3161.35, 0.000, 0.000, 0.000, 18:39:30.238
79, -119.68, 71.26, 282.07, -3225.97, 0.000, 0.000, 0.000, 18:39:30.239
80, -133.16, 80.34, 294.46, -3278.09, 0.000, 0.000, 0.000, 18:39:30.239
81, -133.16, 61.61, 284.20, -3200.55, 0.000, 0.000, 0.000, 18:39:30.240
82, -109.44, 59.83, 276.01, -3184.81, 0.000, 0.000, 0.000, 18:39:30.240
83, -75.21, 92.39, 273.78, -3355.54, 0.000, 0.000, 0.000, 18:39:30.253
84, -138.57, 78.03, 300.63, -3261.82, 0.000, 0.000, 0.000, 18:39:30.254
85, -131.16, 64.51, 285.97, -3189.00, 0.000, 0.000, 0.000, 18:39:30.268
86, -108.59, 71.62, 279.37, -3159.74, 0.000, 0.000, 0.000, 18:39:30.268
87, -114.35, 88.62, 293.01, -3194.11, 0.000, 0.000, 0.000, 18:39:30.283
88, -129.45, 86.86, 302.72, -3243.91, 0.000, 0.000, 0.000, 18:39:30.283
89, -132.76, 63.06, 276.96, -3237.47, 0.000, 0.000, 0.000, 18:39:30.283
90, -110.45, 67.55, 283.62, -3138.95, 0.000, 0.000, 0.000, 18:39:30.283
91, -106.20, 85.89, 297.65, -3228.08, 0.000, 0.000, 0.000, 18:39:30.298
92, -118.42, 88.10, 293.24, -3324.77, 0.000, 0.000, 0.000, 18:39:30.298
93, -134.54, 58.56, 287.23, -3215.59, 0.000, 0.000, 0.000, 18:39:30.313
94, -109.39, 64.63, 283.11, -3180.67, 0.000, 0.000, 0.000, 18:39:30.313
95, -110.31, 80.83, 284.08, -3269.62, 0.000, 0.000, 0.000, 18:39:30.314
96, -133.08, 81.80, 289.96, -3270.71, 0.000, 0.000, 0.000, 18:39:30.314
97, -129.03, 61.56, 280.88, -3222.58, 0.000, 0.000, 0.000, 18:39:30.328
98, -101.93, 67.84, 264.80, -3225.75, 0.000, 0.000, 0.000, 18:39:30.328
99, -118.53, 81.01, 282.55, -3213.76, 0.000, 0.000, 0.000, 18:39:30.343
100, -133.12, 81.04, 284.70, -3300.99, 0.000, 0.000, 0.000, 18:39:30.343
101, -129.74, 58.99, 270.05, -3240.33, 0.000, 0.000, 0.000, 18:39:30.343
102, -114.09, 62.27, 267.41, -3195.46, 0.000, 0.000, 0.000, 18:39:30.344
103, -116.58, 73.28, 274.64, -3267.24, 0.000, 0.000, 0.000, 18:39:30.358
104, -125.00, 78.60, 276.91, -3348.03, 0.000, 0.000, 0.000, 18:39:30.358
105, -135.60, 56.07, 277.55, -3227.06, 0.000, 0.000, 0.000, 18:39:30.373
106, -100.73, 70.72, 279.10, -3180.16, 0.000, 0.000, 0.000, 18:39:30.373
107, -103.28, 85.83, 276.53, -3271.61, 0.000, 0.000, 0.000, 18:39:30.374
108, -141.34, 74.97, 283.93, -3266.27, 0.000, 0.000, 0.000, 18:39:30.374
109, -128.19, 65.91, 285.82, -3220.89, 0.000, 0.000, 0.000, 18:39:30.388
110, -105.25, 66.12, 264.36, -3207.64, 0.000, 0.000, 0.000, 18:39:30.388
111, -120.71, 78.15, 282.35, -3223.38, 0.000, 0.000, 0.000, 18:39:30.403
112, -135.06, 77.77, 289.08, -3275.13, 0.000, 0.000, 0.000, 18:39:30.403
113, -130.36, 66.21, 277.68, -3243.39, 0.000, 0.000, 0.000, 18:39:30.404
114, -115.56, 61.92, 276.98, -3158.26, 0.000, 0.000, 0.000, 18:39:30.404
115, -115.22, 78.37, 282.63, -3253.56, 0.000, 0.000, 0.000, 18:39:30.418
116, -126.97, 82.63, 279.05, -3349.85, 0.000, 0.000, 0.000, 18:39:30.418
117, -133.48, 65.72, 288.89, -3209.51, 0.000, 0.000, 0.000, 18:39:30.433
118, -113.27, 66.10, 276.71, -3171.60, 0.000, 0.000, 0.000, 18:39:30.433
119, -116.27, 82.84, 278.38, -3263.65, 0.000, 0.000, 0.000, 18:39:30.433
120, -136.44, 79.22, 288.26, -3304.55, 0.000, 0.000, 0.000, 18:39:30.434
121, -128.20, 65.93, 285.18, -3250.74, 0.000, 0.000, 0.000, 18:39:30.448
122, -96.18, 72.10, 270.26, -3258.87, 0.000, 0.000, 0.000, 18:39:30.448
123, -118.27, 82.72, 276.63, -3250.67, 0.000, 0.000, 0.000, 18:39:30.463
124, -135.21, 76.23, 284.94, -3315.30, 0.000, 0.000, 0.000, 18:39:30.463
125, -126.63, 65.43, 273.49, -3263.89, 0.000, 0.000, 0.000, 18:39:30.464
126, -111.64, 65.81, 270.46, -3182.17, 0.000, 0.000, 0.000, 18:39:30.464
127, -111.88, 81.08, 288.07, -3252.16, 0.000, 0.000, 0.000, 18:39:30.478
128, -117.58, 91.89, 292.31, -3340.64, 0.000, 0.000, 0.000, 18:39:30.478
129, -128.54, 68.57, 289.85, -3218.57, 0.000, 0.000, 0.000, 18:39:30.493
130, -95.33, 78.45, 292.47, -3155.77, 0.000, 0.000, 0.000, 18:39:30.493
131, -107.78, 91.71, 286.64, -3260.23, 0.000, 0.000, 0.000, 18:39:30.494
132, -133.18, 79.45, 297.11, -3265.75, 0.000, 0.000, 0.000, 18:39:30.494
133, -121.97, 70.41, 296.65, -3212.97, 0.000, 0.000, 0.000, 18:39:30.508
134, -93.93, 76.37, 278.68, -3189.04, 0.000, 0.000, 0.000, 18:39:30.508
135, -113.09, 82.74, 289.21, -3218.07, 0.000, 0.000, 0.000, 18:39:30.523
136, -129.72, 89.38, 301.67, -3264.72, 0.000, 0.000, 0.000, 18:39:30.523
137, -123.04, 65.57, 285.74, -3215.84, 0.000, 0.000, 0.000, 18:39:30.524
138, -115.09, 64.12, 283.26, -3157.46, 0.000, 0.000, 0.000, 18:39:30.524
139, -124.23, 76.75, 277.16, -3258.42, 0.000, 0.000, 0.000, 18:39:30.553
140, -123.71, 81.58, 282.65, -3347.18, 0.000, 0.000, 0.000, 18:39:30.553
141, -132.90, 60.89, 279.85, -3221.96, 0.000, 0.000, 0.000, 18:39:30.553
142, -103.77, 68.08, 275.78, -3178.03, 0.000, 0.000, 0.000, 18:39:30.553
143, -113.00, 82.79, 282.21, -3242.42, 0.000, 0.000, 0.000, 18:39:30.554
144, -141.55, 69.66, 284.75, -3283.01, 0.000, 0.000, 0.000, 18:39:30.555
145, -132.43, 56.25, 278.51, -3204.63, 0.000, 0.000, 0.000, 18:39:30.568
146, -93.63, 69.91, 254.79, -3249.21, 0.000, 0.000, 0.000, 18:39:30.568
147, -130.55, 74.28, 279.51, -3214.57, 0.000, 0.000, 0.000, 18:39:30.583
148, -149.70, 71.50, 279.74, -3288.90, 0.000, 0.000, 0.000, 18:39:30.583
149, -129.05, 72.17, 278.64, -3224.27, 0.000, 0.000, 0.000, 18:39:30.583
150, -115.19, 60.60, 276.59, -3160.19, 0.000, 0.000, 0.000, 18:39:30.584
151, -110.78, 84.03, 290.87, -3241.64, 0.000, 0.000, 0.000, 18:39:30.598
152, -114.15, 97.59, 293.69, -3321.50, 0.000, 0.000, 0.000, 18:39:30.598
153, -135.14, 63.29, 288.63, -3176.95, 0.000, 0.000, 0.000, 18:39:30.613
154, -110.26, 64.81, 288.37, -3161.66, 0.000, 0.000, 0.000, 18:39:30.613
155, -112.06, 85.31, 289.80, -3225.42, 0.000, 0.000, 0.000, 18:39:30.613
156, -138.43, 82.18, 300.02, -3265.13, 0.000, 0.000, 0.000, 18:39:30.614
157, -124.67, 70.76, 291.11, -3218.47, 0.000, 0.000, 0.000, 18:39:30.628
158, -94.70, 79.33, 275.04, -3201.14, 0.000, 0.000, 0.000, 18:39:30.628
159, -109.64, 88.37, 292.36, -3240.96, 0.000, 0.000, 0.000, 18:39:30.643
160, -125.87, 97.72, 305.07, -3275.25, 0.000, 0.000, 0.000, 18:39:30.643
161, -116.28, 87.57, 291.27, -3224.00, 0.000, 0.000, 0.000, 18:39:30.644
162, -91.04, 98.80, 292.17, -3165.41, 0.000, 0.000, 0.000, 18:39:30.644
163, -100.56, 105.98, 289.69, -3262.03, 0.000, 0.000, 0.000, 18:39:30.658
164, -105.71, 113.44, 297.45, -3306.97, 0.000, 0.000, 0.000, 18:39:30.658
165, -120.02, 110.02, 297.28, -3150.11, 0.000, 0.000, 0.000, 18:39:30.673
166, -89.57, 116.54, 294.33, -3150.32, 0.000, 0.000, 0.000, 18:39:30.673
167, -97.24, 134.42, 286.03, -3220.53, 0.000, 0.000, 0.000, 18:39:30.673
168, -124.48, 127.06, 303.06, -3239.84, 0.000, 0.000, 0.000, 18:39:30.673
169, -108.92, 119.54, 301.25, -3177.96, 0.000, 0.000, 0.000, 18:39:30.688
170, -78.59, 119.18, 287.94, -3184.80, 0.000, 0.000, 0.000, 18:39:30.688
171, -96.05, 130.85, 302.78, -3174.70, 0.000, 0.000, 0.000, 18:39:30.703
172, -118.25, 120.23, 307.34, -3245.37, 0.000, 0.000, 0.000, 18:39:30.703
173, -121.73, 101.91, 286.47, -3193.61, 0.000, 0.000, 0.000, 18:39:30.704
174, -104.92, 93.65, 283.58, -3135.61, 0.000, 0.000, 0.000, 18:39:30.704
175, -105.40, 114.61, 294.37, -3240.92, 0.000, 0.000, 0.000, 18:39:30.718
176, -124.35, 93.58, 283.95, -3345.11, 0.000, 0.000, 0.000, 18:39:30.718
177, -124.88, 80.43, 288.12, -3177.45, 0.000, 0.000, 0.000, 18:39:30.748
178, -96.20, 77.42, 287.13, -3156.37, 0.000, 0.000, 0.000, 18:39:30.748
179, -105.67, 89.71, 285.09, -3241.14, 0.000, 0.000, 0.000, 18:39:30.749
180, -138.60, 78.47, 291.55, -3244.45, 0.000, 0.000, 0.000, 18:39:30.749
181, -132.58, 55.30, 284.70, -3199.44, 0.000, 0.000, 0.000, 18:39:30.749
182, -118.58, 54.16, 270.33, -3178.36, 0.000, 0.000, 0.000, 18:39:30.749
183, -114.91, 73.60, 291.30, -3242.14, 0.000, 0.000, 0.000, 18:39:30.750
184, -139.08, 64.18, 286.51, -3291.93, 0.000, 0.000, 0.000, 18:39:30.750
185, -100.07, 53.69, 263.21, -3364.42, 0.000, 0.000, 0.000, 18:39:30.763
186, -125.99, 46.34, 271.93, -3162.96, 0.000, 0.000, 0.000, 18:39:30.763
187, -124.82, 62.33, 280.01, -3264.83, 0.000, 0.000, 0.000, 18:39:30.778
188, -141.35, 62.15, 281.08, -3317.50, 0.000, 0.000, 0.000, 18:39:30.778
189, -147.45, 45.14, 273.57, -3186.28, 0.000, 0.000, 0.000, 18:39:30.793
190, -122.83, 52.68, 274.95, -3164.82, 0.000, 0.000, 0.000, 18:39:30.793
191, -124.28, 65.16, 272.11, -3290.46, 0.000, 0.000, 0.000, 18:39:30.794
192, -140.04, 60.77, 293.48, -3298.83, 0.000, 0.000, 0.000, 18:39:30.794
193, -128.18, 45.62, 283.78, -3254.51, 0.000, 0.000, 0.000, 18:39:30.808
194, -107.50, 50.19, 262.54, -3256.34, 0.000, 0.000, 0.000, 18:39:30.808
195, -124.65, 63.55, 282.69, -3241.78, 0.000, 0.000, 0.000, 18:39:30.823
196, -147.76, 58.02, 282.75, -3296.66, 0.000, 0.000, 0.000, 18:39:30.823
197, -135.70, 48.04, 272.80, -3241.64, 0.000, 0.000, 0.000, 18:39:30.824
198, -116.06, 52.34, 279.50, -3167.95, 0.000, 0.000, 0.000, 18:39:30.824
199, -126.04, 59.38, 280.34, -3257.93, 0.000, 0.000, 0.000, 18:39:30.838
200, -124.52, 74.96, 296.89, -3332.19, 0.000, 0.000, 0.000, 18:39:30.838
0, -139.68, 44.90, 279.26, -3207.55, 0.000, 0.000, 0.000, 18:39:30.839
1, -110.95, 57.30, 280.00, -3185.14, 0.000, 0.000, 0.000, 18:39:30.868
2, -111.54, 71.36, 272.78, -3295.32, 0.000, 0.000, 0.000, 18:39:30.868
3, -144.16, 64.12, 285.99, -3295.93, 0.000, 0.000, 0.000, 18:39:30.868
4, -127.72, 55.33, 286.14, -3233.86, 0.000, 0.000, 0.000, 18:39:30.869
5, -110.64, 57.16, 272.79, -3190.22, 0.000, 0.000, 0.000, 18:39:30.869
6, -113.04, 76.53, 287.51, -3253.13, 0.000, 0.000, 0.000, 18:39:30.869
7, -132.10, 77.60, 293.13, -3285.51, 0.000, 0.000, 0.000, 18:39:30.883
8, -95.60, 68.24, 280.64, -3304.01, 0.000, 0.000, 0.000, 18:39:30.883
9, -103.11, 68.98, 288.33, -3161.98, 0.000, 0.000, 0.000, 18:39:30.898
10, -115.23, 74.44, 287.54, -3247.33, 0.000, 0.000, 0.000, 18:39:30.898
11, -124.60, 82.21, 290.99, -3294.52, 0.000, 0.000, 0.000, 18:39:30.899
12, -129.62, 58.19, 288.62, -3203.50, 0.000, 0.000, 0.000, 18:39:30.899
13, -109.77, 62.90, 279.32, -3160.94, 0.000, 0.000, 0.000, 18:39:30.913
14, -108.47, 75.57, 279.06, -3290.81, 0.000, 0.000, 0.000, 18:39:30.913
15, -133.30, 79.32, 296.64, -3280.08, 0.000, 0.000, 0.000, 18:39:30.928
16, -129.84, 54.81, 287.96, -3230.31, 0.000, 0.000, 0.000, 18:39:30.928
17, -101.78, 64.79, 275.40, -3175.05, 0.000, 0.000, 0.000, 18:39:30.929
18, -114.32, 79.68, 287.85, -3232.67, 0.000, 0.000, 0.000, 18:39:30.929
19, -136.88, 73.31, 294.72, -3297.70, 0.000, 0.000, 0.000, 18:39:30.943
20, -119.74, 57.92, 274.47, -3270.18, 0.000, 0.000, 0.000, 18:39:30.943
21, -118.85, 59.40, 272.95, -3177.33, 0.000, 0.000, 0.000, 18:39:30.958
22, -109.81, 79.24, 291.11, -3256.32, 0.000, 0.000, 0.000, 18:39:30.958
23, -125.10, 80.29, 290.44, -3308.44, 0.000, 0.000, 0.000, 18:39:30.959
24, -130.96, 58.70, 287.93, -3217.93, 0.000, 0.000, 0.000, 18:39:30.959
25, -102.12, 69.55, 284.98, -3191.88, 0.000, 0.000, 0.000, 18:39:30.973
26, -102.90, 83.40, 279.82, -3301.96, 0.000, 0.000, 0.000, 18:39:30.973
27, -146.89, 69.52, 283.14, -3281.53, 0.000, 0.000, 0.000, 18:39:30.988
28, -124.30, 69.26, 287.86, -3201.06, 0.000, 0.000, 0.000, 18:39:30.988
29, -110.15, 65.28, 278.51, -3161.37, 0.000, 0.000, 0.000, 18:39:30.989
30, -131.99, 71.49, 285.95, -3227.69, 0.000, 0.000, 0.000, 18:39:30.989
31, -132.75, 79.52, 300.75, -3305.18, 0.000, 0.000, 0.000, 18:39:31.003
32, -121.61, 59.12, 273.54, -3272.17, 0.000, 0.000, 0.000, 18:39:31.003
33, -111.82, 63.07, 276.19, -3177.55, 0.000, 0.000, 0.000, 18:39:31.018
34, -117.39, 79.94, 284.26, -3238.71, 0.000, 0.000, 0.000, 18:39:31.018
35, -136.42, 72.20, 286.70, -3306.85, 0.000, 0.000, 0.000, 18:39:31.019
36, -131.27, 65.58, 287.93, -3198.57, 0.000, 0.000, 0.000, 18:39:31.019
37, -115.74, 64.52, 276.61, -3174.37, 0.000, 0.000, 0.000, 18:39:31.033
38, -107.89, 86.82, 283.38, -3295.95, 0.000, 0.000, 0.000, 18:39:31.033
39, -141.77, 82.11, 292.65, -3253.74, 0.000, 0.000, 0.000, 18:39:31.048
40, -134.13, 61.53, 285.84, -3209.26, 0.000, 0.000, 0.000, 18:39:31.048
41, -107.54, 70.01, 279.48, -3173.54, 0.000, 0.000, 0.000, 18:39:31.049
42, -120.04, 78.12, 293.82, -3227.54, 0.000, 0.000, 0.000, 18:39:31.049
43, -133.91, 83.56, 293.63, -3291.39, 0.000, 0.000, 0.000, 18:39:31.063
44, -117.33, 69.12, 274.54, -3248.57, 0.000, 0.000, 0.000, 18:39:31.063
45, -109.16, 73.86, 283.23, -3149.30, 0.000, 0.000, 0.000, 18:39:31.078
46, -102.79, 94.98, 300.26, -3237.08, 0.000, 0.000, 0.000, 18:39:31.078
47, -128.90, 86.75, 296.03, -3298.39, 0.000, 0.000, 0.000, 18:39:31.079
48, -130.10, 67.82, 288.34, -3196.57, 0.000, 0.000, 0.000, 18:39:31.079
49, -107.20, 69.51, 284.31, -3191.45, 0.000, 0.000, 0.000, 18:39:31.093
50, -97.09, 86.02, 284.52, -3284.51, 0.000, 0.000, 0.000, 18:39:31.093
51, -128.76, 70.68, 297.68, -3280.23, 0.000, 0.000, 0.000, 18:39:31.108
52, -133.42, 66.23, 281.14, -3192.14, 0.000, 0.000, 0.000, 18:39:31.108
53, -109.15, 71.57, 274.40, -3168.44, 0.000, 0.000, 0.000, 18:39:31.109
54, -123.02, 82.90, 284.95, -3233.55, 0.000, 0.000, 0.000, 18:39:31.109
55, -139.97, 78.17, 291.33, -3291.82, 0.000, 0.000, 0.000, 18:39:31.123
56, -113.68, 65.63, 276.73, -3263.96, 0.000, 0.000, 0.000, 18:39:31.123
57, -116.33, 67.22, 272.75, -3171.26, 0.000, 0.000, 0.000, 18:39:31.138
58, -118.81, 85.65, 284.76, -3235.30, 0.000, 0.000, 0.000, 18:39:31.138
59, -129.56, 84.93, 291.16, -3291.62, 0.000, 0.000, 0.000, 18:39:31.139
60, -129.66, 59.93, 284.74, -3209.32, 0.000, 0.000, 0.000, 18:39:31.139
61, -118.47, 60.07, 272.98, -3179.55, 0.000, 0.000, 0.000, 18:39:31.153
62, -110.59, 83.12, 276.12, -3293.98, 0.000, 0.000, 0.000, 18:39:31.153
63, -137.42, 73.35, 287.93, -3271.48, 0.000, 0.000, 0.000, 18:39:31.168
64, -126.06, 67.72, 284.25, -3211.14, 0.000, 0.000, 0.000, 18:39:31.168
65, -111.84, 67.78, 273.81, -3174.99, 0.000, 0.000, 0.000, 18:39:31.169
66, -122.54, 73.48, 282.00, -3261.93, 0.000, 0.000, 0.000, 18:39:31.169
67, -133.49, 72.56, 290.70, -3304.30, 0.000, 0.000, 0.000, 18:39:31.198
68, -108.63, 69.37, 281.64, -3274.10, 0.000, 0.000, 0.000, 18:39:31.198
69, -106.40, 64.92, 280.22, -3163.01, 0.000, 0.000, 0.000, 18:39:31.199
70, -125.48, 75.74, 281.99, -3252.03, 0.000, 0.000, 0.000, 18:39:31.199
71, -142.15, 70.92, 284.87, -3295.71, 0.000, 0.000, 0.000, 18:39:31.199
72, -130.63, 64.41, 285.24, -3190.56, 0.000, 0.000, 0.000, 18:39:31.200
73, -115.30, 64.59, 276.44, -3184.28, 0.000, 0.000, 0.000, 18:39:31.213
74, -96.63, 87.95, 271.20, -3340.82, 0.000, 0.000, 0.000, 18:39:31.213
75, -139.51, 79.21, 294.22, -3270.27, 0.000, 0.000, 0.000, 18:39:31.228
76, -126.26, 62.42, 289.38, -3202.06, 0.000, 0.000, 0.000, 18:39:31.228
77, -107.69, 65.97, 280.45, -3179.94, 0.000, 0.000, 0.000, 18:39:31.229
78, -113.36, 81.01, 297.16, -3228.44, 0.000, 0.000, 0.000, 18:39:31.229
79, -127.69, 82.50, 301.02, -3276.17, 0.000, 0.000, 0.000, 18:39:31.243
80, -107.98, 72.69, 285.59, -3267.80, 0.000, 0.000, 0.000, 18:39:31.243
81, -106.05, 70.54, 280.79, -3180.10, 0.000, 0.000, 0.000, 18:39:31.258
82, -108.92, 90.20, 293.56, -3243.15, 0.000, 0.000, 0.000, 18:39:31.258
83, -131.41, 80.72, 295.44, -3279.41, 0.000, 0.000, 0.000, 18:39:31.259
84, -119.39, 72.06, 297.20, -3204.30, 0.000, 0.000, 0.000, 18:39:31.259
85, -101.95, 73.37, 287.87, -3173.06, 0.000, 0.000, 0.000, 18:39:31.273
86, -101.21, 92.03, 283.73, -3298.62, 0.000, 0.000, 0.000, 18:39:31.273
87, -135.69, 83.58, 296.89, -3273.70, 0.000, 0.000, 0.000, 18:39:31.288
88, -124.24, 70.13, 289.49, -3211.26, 0.000, 0.000, 0.000, 18:39:31.288
89, -104.51, 72.60, 277.15, -3206.89, 0.000, 0.000, 0.000, 18:39:31.289
90, -124.67, 79.14, 285.63, -3248.16, 0.000, 0.000, 0.000, 18:39:31.289
91, -130.52, 82.28, 299.34, -3265.03, 0.000, 0.000, 0.000, 18:39:31.303
92, -124.06, 64.78, 273.88, -3256.45, 0.000, 0.000, 0.000, 18:39:31.303
93, -110.47, 64.89, 281.61, -3176.01, 0.000, 0.000, 0.000, 18:39:31.318
94, -114.13, 88.70, 291.37, -3241.06, 0.000, 0.000, 0.000, 18:39:31.318
95, -131.55, 84.39, 293.21, -3288.31, 0.000, 0.000, 0.000, 18:39:31.318
96, -130.90, 63.98, 279.74, -3210.81, 0.000, 0.000, 0.000, 18:39:31.318
97, -107.37, 66.69, 276.60, -3178.88, 0.000, 0.000, 0.000, 18:39:31.333
98, -106.42, 78.18, 278.53, -3314.50, 0.000, 0.000, 0.000, 18:39:31.333
99, -137.28, 75.33, 290.21, -3273.40, 0.000, 0.000, 0.000, 18:39:31.348
100, -125.74, 65.18, 285.62, -3217.24, 0.000, 0.000, 0.000, 18:39:31.348
101, -101.82, 66.90, 278.97, -3181.61, 0.000, 0.000, 0.000, 18:39:31.349
102, -118.12, 83.12, 284.82, -3238.00, 0.000, 0.000, 0.000, 18:39:31.349
103, -134.36, 77.84, 292.72, -3289.40, 0.000, 0.000, 0.000, 18:39:31.363
104, -113.69, 71.64, 276.80, -3260.31, 0.000, 0.000, 0.000, 18:39:31.363
105, -112.51, 61.41, 272.02, -3179.80, 0.000, 0.000, 0.000, 18:39:31.378
106, -122.07, 74.10, 281.57, -3266.07, 0.000, 0.000, 0.000, 18:39:31.378
107, -131.41, 74.58, 287.77, -3292.11, 0.000, 0.000, 0.000, 18:39:31.379
108, -134.76, 58.98, 280.16, -3194.52, 0.000, 0.000, 0.000, 18:39:31.379
109, -110.00, 62.75, 274.69, -3178.60, 0.000, 0.000, 0.000, 18:39:31.393
110, -107.11, 83.31, 275.59, -3308.97, 0.000, 0.000, 0.000, 18:39:31.393
111, -135.49, 81.02, 295.32, -3293.18, 0.000, 0.000, 0.000, 18:39:31.408
112, -118.63, 69.13, 288.42, -3224.68, 0.000, 0.000, 0.000, 18:39:31.408
113, -108.74, 69.66, 272.57, -3198.69, 0.000, 0.000, 0.000, 18:39:31.409
114, -124.35, 80.10, 281.55, -3231.41, 0.000, 0.000, 0.000, 18:39:31.409
115, -148.20, 67.12, 284.02, -3287.63, 0.000, 0.000, 0.000, 18:39:31.423
116, -116.01, 65.17, 279.94, -3269.71, 0.000, 0.000, 0.000, 18:39:31.423
117, -117.09, 65.69, 272.26, -3165.08, 0.000, 0.000, 0.000, 18:39:31.438
118, -119.84, 81.02, 287.17, -3256.95, 0.000, 0.000, 0.000, 18:39:31.438
119, -124.44, 84.85, 295.11, -3302.57, 0.000, 0.000, 0.000, 18:39:31.439
120, -121.49, 64.27, 289.88, -3210.33, 0.000, 0.000, 0.000, 18:39:31.439
121, -99.34, 73.33, 283.62, -3190.75, 0.000, 0.000, 0.000, 18:39:31.453
122, -102.80, 89.15, 281.46, -3301.73, 0.000, 0.000, 0.000, 18:39:31.453
123, -136.80, 80.61, 297.68, -3261.81, 0.000, 0.000, 0.000, 18:39:31.468
124, -125.89, 60.04, 285.84, -3188.87, 0.000, 0.000, 0.000, 18:39:31.468
125, -108.97, 69.65, 272.97, -3189.85, 0.000, 0.000, 0.000, 18:39:31.469
126, -131.32, 68.14, 275.76, -3265.39, 0.000, 0.000, 0.000, 18:39:31.469
127, -140.24, 71.96, 283.16, -3291.75, 0.000, 0.000, 0.000, 18:39:31.483
128, -113.43, 64.54, 269.92, -3295.67, 0.000, 0.000, 0.000, 18:39:31.483
129, -104.84, 68.46, 280.51, -3197.97, 0.000, 0.000, 0.000, 18:39:31.513
130, -115.31, 82.00, 290.26, -3265.56, 0.000, 0.000, 0.000, 18:39:31.513
131, -125.02, 85.93, 297.28, -3290.58, 0.000, 0.000, 0.000, 18:39:31.513
132, -133.21, 61.74, 289.71, -3193.39, 0.000, 0.000, 0.000, 18:39:31.513
133, -102.98, 70.59, 286.21, -3185.83, 0.000, 0.000, 0.000, 18:39:31.514
134, -112.65, 83.80, 291.07, -3255.99, 0.000, 0.000, 0.000, 18:39:31.514
135, -127.01, 83.82, 303.60, -3273.31, 0.000, 0.000, 0.000, 18:39:31.515
136, -113.20, 75.56, 300.63, -3190.97, 0.000, 0.000, 0.000, 18:39:31.515
137, -59.46, 87.54, 275.55, -3326.14, 0.000, 0.000, 0.000, 18:39:31.528
138, -118.51, 81.38, 296.10, -3243.33, 0.000, 0.000, 0.000, 18:39:31.528
139, -128.69, 81.05, 298.08, -3299.19, 0.000, 0.000, 0.000, 18:39:31.543
140, -118.15, 65.18, 283.66, -3223.95, 0.000, 0.000, 0.000, 18:39:31.543
141, -104.77, 73.32, 287.72, -3166.87, 0.000, 0.000, 0.000, 18:39:31.558
142, -115.47, 84.15, 291.30, -3252.26, 0.000, 0.000, 0.000, 18:39:31.558
143, -127.93, 93.71, 296.99, -3281.38, 0.000, 0.000, 0.000, 18:39:31.558
144, -135.02, 65.01, 285.88, -3194.52, 0.000, 0.000, 0.000, 18:39:31.559
145, -106.47, 70.67, 282.89, -3184.07, 0.000, 0.000, 0.000, 18:39:31.573
146, -99.04, 100.58, 292.37, -3321.54, 0.000, 0.000, 0.000, 18:39:31.573
147, -130.96, 80.73, 299.18, -3269.77, 0.000, 0.000, 0.000, 18:39:31.588
148, -116.23, 68.61, 290.01, -3229.55, 0.000, 0.000, 0.000, 18:39:31.588
149, -109.77, 71.79, 273.92, -3184.99, 0.000, 0.000, 0.000, 18:39:31.589
150, -124.98, 86.75, 287.80, -3229.09, 0.000, 0.000, 0.000, 18:39:31.589
151, -130.23, 88.86, 298.67, -3285.97, 0.000, 0.000, 0.000, 18:39:31.603
152, -114.09, 76.05, 278.11, -3235.39, 0.000, 0.000, 0.000, 18:39:31.603
153, -112.06, 71.47, 276.96, -3186.03, 0.000, 0.000, 0.000, 18:39:31.618
154, -115.29, 91.74, 285.73, -3246.76, 0.000, 0.000, 0.000, 18:39:31.618
155, -125.53, 89.15, 296.85, -3284.77, 0.000, 0.000, 0.000, 18:39:31.619
156, -129.59, 63.36, 285.94, -3210.56, 0.000, 0.000, 0.000, 18:39:31.619
157, -112.79, 63.79, 278.22, -3179.87, 0.000, 0.000, 0.000, 18:39:31.633
158, -100.43, 88.25, 288.07, -3295.90, 0.000, 0.000, 0.000, 18:39:31.633
159, -132.59, 79.02, 297.57, -3273.29, 0.000, 0.000, 0.000, 18:39:31.648
160, -121.49, 64.10, 284.80, -3218.95, 0.000, 0.000, 0.000, 18:39:31.648
161, -105.78, 67.42, 271.94, -3199.31, 0.000, 0.000, 0.000, 18:39:31.648
162, -128.02, 78.73, 280.75, -3231.77, 0.000, 0.000, 0.000, 18:39:31.649
163, -139.48, 74.70, 292.69, -3296.13, 0.000, 0.000, 0.000, 18:39:31.663
164, -121.37, 68.11, 276.77, -3224.78, 0.000, 0.000, 0.000, 18:39:31.663
165, -110.66, 64.99, 282.93, -3174.97, 0.000, 0.000, 0.000, 18:39:31.678
166, -125.18, 81.22, 287.46, -3260.71, 0.000, 0.000, 0.000, 18:39:31.678
167, -133.11, 80.67, 292.56, -3294.49, 0.000, 0.000, 0.000, 18:39:31.679
168, -124.32, 65.08, 292.41, -3184.17, 0.000, 0.000, 0.000, 18:39:31.679
169, -119.89, 61.74, 282.08, -3166.21, 0.000, 0.000, 0.000, 18:39:31.693
170, -113.29, 82.82, 280.17, -3303.00, 0.000, 0.000, 0.000, 18:39:31.693
171, -144.58, 76.65, 297.05, -3268.19, 0.000, 0.000, 0.000, 18:39:31.708
172, -131.80, 60.17, 286.90, -3190.36, 0.000, 0.000, 0.000, 18:39:31.708
173, -105.46, 67.42, 277.38, -3190.89, 0.000, 0.000, 0.000, 18:39:31.709
174, -123.38, 80.11, 279.53, -3268.96, 0.000, 0.000, 0.000, 18:39:31.709
175, -135.67, 78.73, 282.92, -3327.82, 0.000, 0.000, 0.000, 18:39:31.723
176, -112.26, 65.52, 267.38, -3290.09, 0.000, 0.000, 0.000, 18:39:31.723
177, -107.06, 77.03, 284.11, -3147.53, 0.000, 0.000, 0.000, 18:39:31.738
178, -124.55, 83.84, 285.73, -3252.44, 0.000, 0.000, 0.000, 18:39:31.738
179, -124.54, 84.62, 294.40, -3293.77, 0.000, 0.000, 0.000, 18:39:31.738
180, -119.00, 63.19, 283.02, -3219.36, 0.000, 0.000, 0.000, 18:39:31.739
181, -107.51, 61.79, 271.44, -3215.34, 0.000, 0.000, 0.000, 18:39:31.753
182, -104.86, 86.13, 280.18, -3323.32, 0.000, 0.000, 0.000, 18:39:31.753
183, -134.98, 80.70, 288.45, -3284.94, 0.000, 0.000, 0.000, 18:39:31.768
184, -125.55, 59.22, 276.87, -3222.74, 0.000, 0.000, 0.000, 18:39:31.768
185, -104.02, 69.83, 275.14, -3168.98, 0.000, 0.000, 0.000, 18:39:31.769
186, -117.24, 85.27, 294.56, -3224.66, 0.000, 0.000, 0.000, 18:39:31.769
187, -128.33, 82.35, 304.65, -3285.83, 0.000, 0.000, 0.000, 18:39:31.783
188, -108.60, 71.69, 283.54, -3259.37, 0.000, 0.000, 0.000, 18:39:31.783
189, -105.17, 71.68, 279.78, -3172.60, 0.000, 0.000, 0.000, 18:39:31.798
190, -110.52, 88.59, 291.17, -3260.61, 0.000, 0.000, 0.000, 18:39:31.798
191, -127.26, 84.97, 295.01, -3297.71, 0.000, 0.000, 0.000, 18:39:31.799
192, -127.77, 65.26, 284.46, -3193.68, 0.000, 0.000, 0.000, 18:39:31.799
193, -109.75, 68.85, 279.05, -3193.75, 0.000, 0.000, 0.000, 18:39:31.828
194, -114.65, 83.93, 275.86, -3311.38, 0.000, 0.000, 0.000, 18:39:31.828
195, -141.34, 77.89, 290.12, -3257.85, 0.000, 0.000, 0.000, 18:39:31.828
196, -119.62, 73.46, 295.66, -3179.02, 0.000, 0.000, 0.000, 18:39:31.828
197, -99.78, 78.47, 284.58, -3155.52, 0.000, 0.000, 0.000, 18:39:31.830
198, -115.38, 88.36, 292.50, -3252.45, 0.000, 0.000, 0.000, 18:39:31.830
199, -130.55, 84.85, 295.74, -3305.30, 0.000, 0.000, 0.000, 18:39:31.843
200, -98.14, 75.89, 276.26, -3283.34, 0.000, 0.000, 0.000, 18:39:31.843
0, -117.04, 68.70, 283.71, -3171.41, 0.000, 0.000, 0.000, 18:39:31.843
1, -119.37, 88.12, 288.82, -3257.91, 0.000, 0.000, 0.000, 18:39:31.858
2, -116.54, 90.82, 296.50, -3339.35, 0.000, 0.000, 0.000, 18:39:31.858
3, -121.07, 73.03, 293.93, -3191.38, 0.000, 0.000, 0.000, 18:39:31.873
4, -107.75, 69.19, 282.15, -3167.08, 0.000, 0.000, 0.000, 18:39:31.873
5, -113.48, 89.13, 293.35, -3258.36, 0.000, 0.000, 0.000, 18:39:31.874
6, -136.04, 81.34, 300.81, -3249.63, 0.000, 0.000, 0.000, 18:39:31.874
7, -129.85, 56.45, 284.10, -3214.83, 0.000, 0.000, 0.000, 18:39:31.888
8, -91.68, 70.25, 275.40, -3230.51, 0.000, 0.000, 0.000, 18:39:31.888
9, -118.64, 82.59, 296.85, -3218.19, 0.000, 0.000, 0.000, 18:39:31.903
10, -127.81, 82.89, 308.96, -3260.36, 0.000, 0.000, 0.000, 18:39:31.903
11, -110.56, 70.73, 292.38, -3217.17, 0.000, 0.000, 0.000, 18:39:31.904
12, -102.05, 77.77, 284.66, -3170.65, 0.000, 0.000, 0.000, 18:39:31.904
13, -115.18, 86.16, 285.05, -3299.76, 0.000, 0.000, 0.000, 18:39:31.918
14, -120.94, 87.50, 277.89, -3358.29, 0.000, 0.000, 0.000, 18:39:31.918
15, -126.23, 66.59, 276.83, -3200.44, 0.000, 0.000, 0.000, 18:39:31.933
16, -106.14, 74.50, 272.93, -3201.66, 0.000, 0.000, 0.000, 18:39:31.933
17, -117.67, 85.80, 282.26, -3289.21, 0.000, 0.000, 0.000, 18:39:31.933
18, -141.67, 77.95, 287.63, -3273.56, 0.000, 0.000, 0.000, 18:39:31.934
19, -131.76, 63.15, 285.54, -3191.77, 0.000, 0.000, 0.000, 18:39:31.948
20, -97.24, 73.79, 275.61, -3211.54, 0.000, 0.000, 0.000, 18:39:31.948
21, -118.96, 85.44, 291.58, -3239.53, 0.000, 0.000, 0.000, 18:39:31.963
22, -139.24, 75.05, 291.36, -3297.48, 0.000, 0.000, 0.000, 18:39:31.963
23, -116.32, 65.31, 279.56, -3229.82, 0.000, 0.000, 0.000, 18:39:31.964
24, -111.57, 67.57, 280.55, -3157.71, 0.000, 0.000, 0.000, 18:39:31.964
25, -116.94, 84.81, 295.81, -3246.99, 0.000, 0.000, 0.000, 18:39:31.978
26, -121.71, 77.13, 286.41, -3318.36, 0.000, 0.000, 0.000, 18:39:31.978
27, -131.15, 59.00, 286.37, -3175.29, 0.000, 0.000, 0.000, 18:39:31.993
28, -116.91, 56.32, 273.41, -3171.99, 0.000, 0.000, 0.000, 18:39:31.993
29, -118.86, 77.19, 281.27, -3275.70, 0.000, 0.000, 0.000, 18:39:31.994
30, -136.85, 75.69, 291.73, -3295.22, 0.000, 0.000, 0.000, 18:39:31.994
31, -121.03, 65.41, 284.79, -3229.32, 0.000, 0.000, 0.000, 18:39:32.008
32, -95.45, 71.99, 267.43, -3252.19, 0.000, 0.000, 0.000, 18:39:32.008
33, -123.45, 80.24, 286.81, -3263.95, 0.000, 0.000, 0.000, 18:39:32.023
34, -128.44, 81.83, 295.52, -3289.98, 0.000, 0.000, 0.000, 18:39:32.023
35, -111.71, 72.51, 285.11, -3202.56, 0.000, 0.000, 0.000, 18:39:32.023
36, -110.12, 70.10, 280.63, -3184.94, 0.000, 0.000, 0.000, 18:39:32.024
37, -118.32, 83.59, 286.24, -3269.27, 0.000, 0.000, 0.000, 18:39:32.038
38, -123.11, 80.40, 287.24, -3323.57, 0.000, 0.000, 0.000, 18:39:32.038
39, -129.52, 60.34, 286.38, -3167.73, 0.000, 0.000, 0.000, 18:39:32.053
40, -102.94, 73.13, 287.90, -3193.29, 0.000, 0.000, 0.000, 18:39:32.053
41, -117.15, 79.59, 280.93, -3278.43, 0.000, 0.000, 0.000, 18:39:32.053
42, -138.78, 74.15, 291.33, -3280.17, 0.000, 0.000, 0.000, 18:39:32.054
43, -121.39, 61.53, 287.54, -3219.03, 0.000, 0.000, 0.000, 18:39:32.068
44, -86.59, 81.07, 278.14, -3233.27, 0.000, 0.000, 0.000, 18:39:32.068
45, -111.96, 88.86, 293.80, -3248.29, 0.000, 0.000, 0.000, 18:39:32.083
46, -132.30, 81.26, 294.08, -3291.60, 0.000, 0.000, 0.000, 18:39:32.083
47, -126.80, 65.69, 274.08, -3216.05, 0.000, 0.000, 0.000, 18:39:32.083
