%OpenBCI Raw EEG Data
%
%Sample Rate = 200.0 Hz
%First Column = SampleIndex
%Last Column = Timestamp 
%Other Columns = EEG data in microvolts followed by Accel Data (in G) interleaved with Aux Data
0, -428.66, -44.34, 268.91, -3101.61, 0.000, 0.000, 0.000, 17:38:28.136
1, -428.74, -41.93, 287.75, -3146.78, 0.000, 0.000, 0.000, 17:38:28.167
2, -389.52, -33.13, 269.52, -3270.73, 0.000, 0.000, 0.000, 17:38:28.167
3, -366.44, -23.10, 258.74, -3216.80, 0.000, 0.000, 0.000, 17:38:28.168
4, -413.11, -37.92, 296.88, -3107.77, 0.000, 0.000, 0.000, 17:38:28.168
5, -412.66, -27.84, 311.31, -3132.68, 0.000, 0.000, 0.000, 17:38:28.168
6, -380.55, -25.04, 264.49, -3271.69, 0.000, 0.000, 0.000, 17:38:28.168
7, -346.45, 2.27, 284.68, -3219.89, 0.000, 0.000, 0.000, 17:38:28.181
8, -423.74, -35.06, 287.33, -3220.62, 0.000, 0.000, 0.000, 17:38:28.181
9, -412.61, -28.03, 297.63, -3088.22, 0.000, 0.000, 0.000, 17:38:28.195
10, -362.99, -11.04, 290.46, -3200.99, 0.000, 0.000, 0.000, 17:38:28.196
11, -354.69, -7.99, 276.38, -3187.28, 0.000, 0.000, 0.000, 17:38:28.196
12, -403.40, -26.97, 286.23, -3079.83, 0.000, 0.000, 0.000, 17:38:28.196
13, -440.38, -56.76, 284.68, -3147.04, 0.000, 0.000, 0.000, 17:38:28.211
14, -390.13, -25.75, 286.05, -3286.67, 0.000, 0.000, 0.000, 17:38:28.211
15, -369.57, -22.27, 244.34, -3217.01, 0.000, 0.000, 0.000, 17:38:28.226
16, -424.67, -50.11, 279.92, -3088.52, 0.000, 0.000, 0.000, 17:38:28.226
17, -429.30, -48.64, 304.73, -3146.54, 0.000, 0.000, 0.000, 17:38:28.226
18, -403.16, -43.63, 249.39, -3200.69, 0.000, 0.000, 0.000, 17:38:28.226
19, -380.65, -32.13, 229.65, -3209.92, 0.000, 0.000, 0.000, 17:38:28.241
20, -449.40, -67.80, 255.84, -3170.24, 0.000, 0.000, 0.000, 17:38:28.241
21, -433.22, -54.13, 281.57, -3110.61, 0.000, 0.000, 0.000, 17:38:28.255
22, -401.17, -50.21, 248.48, -3230.18, 0.000, 0.000, 0.000, 17:38:28.255
23, -393.97, -46.09, 221.23, -3239.04, 0.000, 0.000, 0.000, 17:38:28.256
24, -436.19, -57.49, 235.09, -3102.48, 0.000, 0.000, 0.000, 17:38:28.256
25, -439.92, -58.13, 253.86, -3129.61, 0.000, 0.000, 0.000, 17:38:28.271
26, -378.19, -23.48, 256.92, -3275.12, 0.000, 0.000, 0.000, 17:38:28.271
27, -380.42, -37.30, 226.08, -3199.92, 0.000, 0.000, 0.000, 17:38:28.285
28, -430.50, -61.51, 270.38, -3094.88, 0.000, 0.000, 0.000, 17:38:28.286
29, -433.91, -51.93, 267.03, -3152.09, 0.000, 0.000, 0.000, 17:38:28.286
30, -372.03, -24.50, 246.50, -3210.55, 0.000, 0.000, 0.000, 17:38:28.286
31, -388.14, -49.69, 208.03, -3279.21, 0.000, 0.000, 0.000, 17:38:28.316
32, -426.47, -49.90, 274.08, -3149.02, 0.000, 0.000, 0.000, 17:38:28.316
33, -426.33, -43.32, 278.88, -3097.41, 0.000, 0.000, 0.000, 17:38:28.316
34, -388.49, -32.55, 245.41, -3239.77, 0.000, 0.000, 0.000, 17:38:28.316
35, -359.52, -12.07, 231.14, -3185.33, 0.000, 0.000, 0.000, 17:38:28.317
36, -408.96, -38.41, 260.63, -3054.80, 0.000, 0.000, 0.000, 17:38:28.317
37, -426.87, -52.14, 263.07, -3125.54, 0.000, 0.000, 0.000, 17:38:28.331
38, -397.16, -40.30, 255.95, -3353.49, 0.000, 0.000, 0.000, 17:38:28.331
39, -348.53, -6.83, 258.06, -3208.51, 0.000, 0.000, 0.000, 17:38:28.346
40, -354.52, 16.38, 333.94, -3044.22, 0.000, 0.000, 0.000, 17:38:28.346
41, -337.77, 45.01, 347.38, -3099.30, 0.000, 0.000, 0.000, 17:38:28.346
42, -261.94, 83.07, 362.59, -3120.83, 0.000, 0.000, 0.000, 17:38:28.346
43, -280.95, 64.73, 329.64, -3162.29, 0.000, 0.000, 0.000, 17:38:28.361
44, -336.02, 34.37, 358.39, -3098.19, 0.000, 0.000, 0.000, 17:38:28.361
45, -359.65, 28.75, 358.19, -3054.22, 0.000, 0.000, 0.000, 17:38:28.375
46, -310.64, 44.16, 319.24, -3200.23, 0.000, 0.000, 0.000, 17:38:28.375
47, -288.49, 56.35, 325.72, -3186.49, 0.000, 0.000, 0.000, 17:38:28.376
48, -354.64, 24.55, 312.45, -3046.28, 0.000, 0.000, 0.000, 17:38:28.376
49, -367.25, 15.51, 340.14, -3061.84, 0.000, 0.000, 0.000, 17:38:28.391
50, -313.84, 45.53, 335.97, -3225.22, 0.000, 0.000, 0.000, 17:38:28.391
51, -320.50, 28.13, 291.80, -3181.08, 0.000, 0.000, 0.000, 17:38:28.405
52, -379.53, -8.36, 305.02, -3084.97, 0.000, 0.000, 0.000, 17:38:28.405
53, -379.02, 3.30, 327.47, -3096.15, 0.000, 0.000, 0.000, 17:38:28.406
54, -319.83, 17.48, 285.57, -3186.80, 0.000, 0.000, 0.000, 17:38:28.406
55, -324.83, 15.13, 281.19, -3224.46, 0.000, 0.000, 0.000, 17:38:28.421
56, -383.34, -9.32, 298.14, -3124.20, 0.000, 0.000, 0.000, 17:38:28.421
57, -365.07, 12.60, 325.57, -3059.53, 0.000, 0.000, 0.000, 17:38:28.435
58, -340.16, 7.55, 274.50, -3198.12, 0.000, 0.000, 0.000, 17:38:28.436
59, -351.44, -12.94, 240.98, -3259.34, 0.000, 0.000, 0.000, 17:38:28.436
60, -363.90, 0.21, 296.55, -3046.02, 0.000, 0.000, 0.000, 17:38:28.436
61, -361.99, 12.55, 332.16, -3077.14, 0.000, 0.000, 0.000, 17:38:28.451
62, -341.39, 7.19, 301.60, -3266.92, 0.000, 0.000, 0.000, 17:38:28.451
63, -307.41, 26.52, 295.25, -3149.75, 0.000, 0.000, 0.000, 17:38:28.481
64, -370.88, -5.31, 281.34, -3068.45, 0.000, 0.000, 0.000, 17:38:28.481
65, -361.31, 17.17, 342.73, -3100.59, 0.000, 0.000, 0.000, 17:38:28.481
66, -308.42, 42.50, 311.36, -3128.30, 0.000, 0.000, 0.000, 17:38:28.481
67, -288.94, 42.00, 295.99, -3176.24, 0.000, 0.000, 0.000, 17:38:28.482
68, -350.22, 16.56, 307.70, -3058.13, 0.000, 0.000, 0.000, 17:38:28.482
69, -353.14, 22.60, 333.86, -3065.64, 0.000, 0.000, 0.000, 17:38:28.483
70, -298.67, 46.64, 326.37, -3148.12, 0.000, 0.000, 0.000, 17:38:28.483
71, -305.89, 42.05, 330.93, -3312.72, 0.000, 0.000, 0.000, 17:38:28.496
72, -352.77, 16.32, 310.05, -3076.04, 0.000, 0.000, 0.000, 17:38:28.496
73, -374.98, 7.70, 308.18, -3081.43, 0.000, 0.000, 0.000, 17:38:28.511
74, -321.29, 30.22, 306.51, -3182.79, 0.000, 0.000, 0.000, 17:38:28.511
75, -324.02, 23.39, 289.37, -3154.85, 0.000, 0.000, 0.000, 17:38:28.525
76, -366.93, 9.54, 310.91, -3064.30, 0.000, 0.000, 0.000, 17:38:28.525
77, -383.25, -7.91, 338.76, -3092.46, 0.000, 0.000, 0.000, 17:38:28.526
78, -339.08, 11.05, 302.86, -3201.26, 0.000, 0.000, 0.000, 17:38:28.526
79, -329.25, 21.29, 277.52, -3223.20, 0.000, 0.000, 0.000, 17:38:28.541
80, -374.62, 5.16, 308.68, -3137.68, 0.000, 0.000, 0.000, 17:38:28.545
81, -383.03, -0.75, 309.60, -3080.59, 0.000, 0.000, 0.000, 17:38:28.555
82, -345.90, 10.88, 285.74, -3211.98, 0.000, 0.000, 0.000, 17:38:28.556
83, -348.87, 2.81, 266.24, -3238.97, 0.000, 0.000, 0.000, 17:38:28.556
84, -391.52, -20.73, 272.73, -3091.28, 0.000, 0.000, 0.000, 17:38:28.556
85, -405.89, -29.63, 285.71, -3120.15, 0.000, 0.000, 0.000, 17:38:28.571
86, -370.09, -10.75, 278.38, -3274.94, 0.000, 0.000, 0.000, 17:38:28.571
87, -360.49, -12.37, 245.05, -3219.59, 0.000, 0.000, 0.000, 17:38:28.585
88, -424.11, -48.19, 261.52, -3135.04, 0.000, 0.000, 0.000, 17:38:28.586
89, -421.85, -42.68, 287.04, -3139.46, 0.000, 0.000, 0.000, 17:38:28.586
90, -371.20, -24.86, 243.69, -3212.78, 0.000, 0.000, 0.000, 17:38:28.586
91, -368.74, -29.81, 221.49, -3230.64, 0.000, 0.000, 0.000, 17:38:28.601
92, -423.03, -50.33, 253.08, -3216.02, 0.000, 0.000, 0.000, 17:38:28.601
93, -421.96, -42.59, 270.12, -3127.86, 0.000, 0.000, 0.000, 17:38:28.615
94, -383.87, -26.76, 261.89, -3251.45, 0.000, 0.000, 0.000, 17:38:28.615
95, -387.05, -44.62, 226.01, -3274.92, 0.000, 0.000, 0.000, 17:38:28.616
96, -425.39, -53.87, 230.75, -3112.26, 0.000, 0.000, 0.000, 17:38:28.616
97, -422.62, -43.71, 263.92, -3100.78, 0.000, 0.000, 0.000, 17:38:28.631
98, -377.95, -31.13, 244.73, -3259.38, 0.000, 0.000, 0.000, 17:38:28.631
99, -373.58, -41.42, 225.95, -3201.35, 0.000, 0.000, 0.000, 17:38:28.645
100, -411.53, -51.64, 243.22, -3109.71, 0.000, 0.000, 0.000, 17:38:28.646
101, -418.49, -41.54, 276.79, -3111.38, 0.000, 0.000, 0.000, 17:38:28.646
102, -381.60, -34.29, 228.94, -3221.84, 0.000, 0.000, 0.000, 17:38:28.646
103, -373.91, -38.33, 222.62, -3246.46, 0.000, 0.000, 0.000, 17:38:28.661
104, -432.47, -59.23, 244.51, -3187.95, 0.000, 0.000, 0.000, 17:38:28.661
105, -432.44, -49.02, 262.50, -3159.60, 0.000, 0.000, 0.000, 17:38:28.675
106, -390.28, -37.40, 250.81, -3264.73, 0.000, 0.000, 0.000, 17:38:28.676
107, -383.63, -42.52, 218.36, -3300.89, 0.000, 0.000, 0.000, 17:38:28.676
108, -435.95, -66.21, 239.23, -3168.89, 0.000, 0.000, 0.000, 17:38:28.676
109, -445.88, -62.77, 245.76, -3189.06, 0.000, 0.000, 0.000, 17:38:28.691
110, -404.44, -44.69, 226.94, -3344.51, 0.000, 0.000, 0.000, 17:38:28.691
111, -385.63, -42.35, 212.89, -3261.81, 0.000, 0.000, 0.000, 17:38:28.705
112, -424.94, -54.35, 216.77, -3168.29, 0.000, 0.000, 0.000, 17:38:28.705
113, -438.11, -57.53, 239.32, -3215.99, 0.000, 0.000, 0.000, 17:38:28.706
114, -382.99, -40.08, 204.82, -3272.75, 0.000, 0.000, 0.000, 17:38:28.706
115, -369.88, -37.79, 179.86, -3322.95, 0.000, 0.000, 0.000, 17:38:28.721
116, -414.20, -38.32, 210.83, -3252.91, 0.000, 0.000, 0.000, 17:38:28.721
117, -391.47, -17.88, 231.91, -3153.49, 0.000, 0.000, 0.000, 17:38:28.736
118, -323.51, 16.61, 216.44, -3250.09, 0.000, 0.000, 0.000, 17:38:28.736
119, -300.48, 35.06, 203.49, -3294.46, 0.000, 0.000, 0.000, 17:38:28.736
120, -327.27, 37.73, 196.22, -3197.51, 0.000, 0.000, 0.000, 17:38:28.736
121, -328.34, 44.06, 220.81, -3170.64, 0.000, 0.000, 0.000, 17:38:28.751
122, -282.91, 65.40, 206.24, -3323.28, 0.000, 0.000, 0.000, 17:38:28.751
123, -261.38, 74.08, 186.44, -3284.72, 0.000, 0.000, 0.000, 17:38:28.765
124, -334.00, 37.69, 187.71, -3188.54, 0.000, 0.000, 0.000, 17:38:28.766
125, -336.50, 48.54, 205.99, -3172.32, 0.000, 0.000, 0.000, 17:38:28.766
126, -282.18, 61.74, 178.07, -3267.59, 0.000, 0.000, 0.000, 17:38:28.766
127, -278.23, 56.77, 159.89, -3315.29, 0.000, 0.000, 0.000, 17:38:28.781
128, -335.89, 29.86, 198.89, -3222.97, 0.000, 0.000, 0.000, 17:38:28.781
129, -356.37, 17.40, 201.43, -3198.73, 0.000, 0.000, 0.000, 17:38:28.811
130, -318.10, 24.20, 173.19, -3269.65, 0.000, 0.000, 0.000, 17:38:28.811
131, -335.67, -3.64, 151.59, -3319.94, 0.000, 0.000, 0.000, 17:38:28.812
132, -394.32, -34.43, 170.39, -3159.40, 0.000, 0.000, 0.000, 17:38:28.812
133, -430.59, -59.43, 190.19, -3207.12, 0.000, 0.000, 0.000, 17:38:28.812
134, -404.95, -60.29, 173.51, -3284.27, 0.000, 0.000, 0.000, 17:38:28.812
135, -421.45, -88.51, 137.81, -3305.29, 0.000, 0.000, 0.000, 17:38:28.825
136, -483.10, -118.37, 155.49, -3198.15, 0.000, 0.000, 0.000, 17:38:28.826
137, -521.32, -135.53, 187.86, -3310.03, 0.000, 0.000, 0.000, 17:38:28.826
138, -475.89, -130.15, 151.72, -3291.31, 0.000, 0.000, 0.000, 17:38:28.826
139, -476.05, -136.87, 138.45, -3289.30, 0.000, 0.000, 0.000, 17:38:28.841
140, -544.86, -174.65, 151.68, -3236.85, 0.000, 0.000, 0.000, 17:38:28.841
141, -546.74, -165.72, 184.33, -3173.65, 0.000, 0.000, 0.000, 17:38:28.855
142, -499.78, -148.16, 171.37, -3284.28, 0.000, 0.000, 0.000, 17:38:28.855
143, -491.61, -148.14, 150.70, -3328.56, 0.000, 0.000, 0.000, 17:38:28.856
144, -541.00, -169.08, 166.61, -3184.33, 0.000, 0.000, 0.000, 17:38:28.856
145, -553.20, -169.70, 204.14, -3192.60, 0.000, 0.000, 0.000, 17:38:28.871
146, -505.50, -142.77, 194.55, -3334.61, 0.000, 0.000, 0.000, 17:38:28.871
147, -492.48, -145.46, 156.04, -3278.50, 0.000, 0.000, 0.000, 17:38:28.885
148, -537.63, -164.88, 176.18, -3216.01, 0.000, 0.000, 0.000, 17:38:28.885
149, -552.76, -162.76, 212.08, -3215.24, 0.000, 0.000, 0.000, 17:38:28.886
150, -486.71, -132.51, 211.25, -3274.48, 0.000, 0.000, 0.000, 17:38:28.886
151, -478.05, -136.26, 198.65, -3285.71, 0.000, 0.000, 0.000, 17:38:28.901
152, -528.41, -157.63, 203.44, -3247.99, 0.000, 0.000, 0.000, 17:38:28.901
153, -530.08, -145.68, 237.88, -3185.66, 0.000, 0.000, 0.000, 17:38:28.916
154, -484.21, -119.68, 215.08, -3292.99, 0.000, 0.000, 0.000, 17:38:28.916
155, -464.30, -114.24, 208.07, -3299.61, 0.000, 0.000, 0.000, 17:38:28.916
156, -503.50, -129.60, 216.42, -3178.65, 0.000, 0.000, 0.000, 17:38:28.916
157, -508.64, -124.93, 233.26, -3176.12, 0.000, 0.000, 0.000, 17:38:28.931
158, -464.16, -103.64, 229.77, -3310.81, 0.000, 0.000, 0.000, 17:38:28.931
159, -445.05, -101.18, 201.44, -3253.88, 0.000, 0.000, 0.000, 17:38:28.945
160, -485.26, -120.43, 231.66, -3150.51, 0.000, 0.000, 0.000, 17:38:28.946
161, -497.75, -108.52, 253.86, -3137.82, 0.000, 0.000, 0.000, 17:38:28.946
162, -434.72, -82.76, 241.76, -3188.58, 0.000, 0.000, 0.000, 17:38:28.946
163, -420.25, -78.12, 233.38, -3209.18, 0.000, 0.000, 0.000, 17:38:28.961
164, -481.01, -98.80, 250.61, -3155.83, 0.000, 0.000, 0.000, 17:38:28.961
165, -478.32, -88.86, 261.63, -3112.00, 0.000, 0.000, 0.000, 17:38:28.975
166, -422.14, -69.03, 253.57, -3234.97, 0.000, 0.000, 0.000, 17:38:28.976
167, -419.33, -72.33, 234.96, -3288.51, 0.000, 0.000, 0.000, 17:38:28.976
168, -467.34, -91.80, 241.73, -3173.80, 0.000, 0.000, 0.000, 17:38:28.976
169, -479.89, -96.97, 262.83, -3119.27, 0.000, 0.000, 0.000, 17:38:28.991
170, -426.85, -70.59, 263.86, -3310.84, 0.000, 0.000, 0.000, 17:38:28.991
171, -414.04, -72.25, 217.41, -3234.13, 0.000, 0.000, 0.000, 17:38:29.006
172, -463.50, -85.13, 232.50, -3190.09, 0.000, 0.000, 0.000, 17:38:29.006
173, -480.51, -92.47, 266.76, -3163.54, 0.000, 0.000, 0.000, 17:38:29.006
174, -427.36, -69.65, 239.35, -3232.77, 0.000, 0.000, 0.000, 17:38:29.006
175, -419.68, -71.53, 214.67, -3314.73, 0.000, 0.000, 0.000, 17:38:29.021
176, -467.66, -83.39, 239.71, -3224.92, 0.000, 0.000, 0.000, 17:38:29.021
177, -465.32, -68.17, 252.68, -3117.28, 0.000, 0.000, 0.000, 17:38:29.035
178, -413.66, -51.25, 229.10, -3235.98, 0.000, 0.000, 0.000, 17:38:29.035
179, -410.76, -59.82, 213.69, -3311.02, 0.000, 0.000, 0.000, 17:38:29.036
180, -456.38, -86.17, 227.99, -3161.95, 0.000, 0.000, 0.000, 17:38:29.036
181, -473.23, -89.54, 248.63, -3145.31, 0.000, 0.000, 0.000, 17:38:29.051
182, -432.13, -69.86, 246.03, -3329.77, 0.000, 0.000, 0.000, 17:38:29.051
183, -413.83, -68.03, 212.82, -3280.21, 0.000, 0.000, 0.000, 17:38:29.065
184, -474.82, -99.36, 213.00, -3168.65, 0.000, 0.000, 0.000, 17:38:29.066
185, -486.90, -97.95, 244.02, -3197.83, 0.000, 0.000, 0.000, 17:38:29.066
186, -434.19, -73.58, 230.61, -3263.52, 0.000, 0.000, 0.000, 17:38:29.066
187, -421.58, -78.19, 190.40, -3301.75, 0.000, 0.000, 0.000, 17:38:29.081
188, -477.45, -99.90, 208.85, -3215.24, 0.000, 0.000, 0.000, 17:38:29.081
189, -468.93, -92.50, 231.25, -3112.50, 0.000, 0.000, 0.000, 17:38:29.096
190, -423.40, -72.51, 219.95, -3243.40, 0.000, 0.000, 0.000, 17:38:29.096
191, -412.04, -76.58, 198.44, -3318.66, 0.000, 0.000, 0.000, 17:38:29.096
192, -464.23, -96.58, 203.07, -3188.56, 0.000, 0.000, 0.000, 17:38:29.096
193, -475.11, -92.35, 223.34, -3151.75, 0.000, 0.000, 0.000, 17:38:29.125
194, -432.63, -75.58, 222.86, -3324.05, 0.000, 0.000, 0.000, 17:38:29.125
195, -410.21, -67.77, 194.88, -3264.14, 0.000, 0.000, 0.000, 17:38:29.126
196, -458.32, -86.81, 207.61, -3185.40, 0.000, 0.000, 0.000, 17:38:29.126
197, -475.57, -86.32, 230.69, -3150.38, 0.000, 0.000, 0.000, 17:38:29.127
198, -411.94, -64.10, 232.37, -3221.70, 0.000, 0.000, 0.000, 17:38:29.127
199, -403.92, -61.94, 202.90, -3271.44, 0.000, 0.000, 0.000, 17:38:29.141
200, -456.39, -80.63, 254.52, -3269.38, 0.000, 0.000, 0.000, 17:38:29.141
0, -464.59, -85.53, 236.82, -3102.48, 0.000, 0.000, 0.000, 17:38:29.141
1, -408.63, -62.38, 190.46, -3199.68, 0.000, 0.000, 0.000, 17:38:29.156
2, -403.89, -58.92, 193.70, -3268.81, 0.000, 0.000, 0.000, 17:38:29.156
3, -440.19, -71.62, 195.57, -3143.02, 0.000, 0.000, 0.000, 17:38:29.170
4, -455.49, -80.45, 209.82, -3127.27, 0.000, 0.000, 0.000, 17:38:29.170
5, -406.05, -60.95, 218.00, -3290.31, 0.000, 0.000, 0.000, 17:38:29.171
6, -382.43, -51.86, 205.55, -3230.73, 0.000, 0.000, 0.000, 17:38:29.171
7, -420.80, -64.06, 235.43, -3114.35, 0.000, 0.000, 0.000, 17:38:29.186
8, -448.26, -69.43, 254.44, -3163.55, 0.000, 0.000, 0.000, 17:38:29.186
9, -398.08, -47.58, 228.38, -3249.86, 0.000, 0.000, 0.000, 17:38:29.201
10, -389.50, -49.90, 221.16, -3241.83, 0.000, 0.000, 0.000, 17:38:29.201
11, -434.71, -66.16, 230.68, -3176.48, 0.000, 0.000, 0.000, 17:38:29.201
12, -452.54, -66.07, 249.92, -3118.29, 0.000, 0.000, 0.000, 17:38:29.201
13, -405.47, -52.65, 220.98, -3219.21, 0.000, 0.000, 0.000, 17:38:29.216
14, -394.10, -52.48, 210.78, -3336.70, 0.000, 0.000, 0.000, 17:38:29.216
15, -432.57, -64.46, 231.68, -3142.49, 0.000, 0.000, 0.000, 17:38:29.231
16, -446.71, -66.24, 244.01, -3124.04, 0.000, 0.000, 0.000, 17:38:29.231
17, -398.90, -45.88, 229.71, -3276.26, 0.000, 0.000, 0.000, 17:38:29.231
18, -376.12, -38.77, 212.44, -3205.87, 0.000, 0.000, 0.000, 17:38:29.231
19, -428.96, -63.95, 228.26, -3146.82, 0.000, 0.000, 0.000, 17:38:29.246
20, -447.87, -66.15, 256.17, -3198.70, 0.000, 0.000, 0.000, 17:38:29.246
21, -398.30, -49.94, 233.83, -3197.95, 0.000, 0.000, 0.000, 17:38:29.260
22, -379.63, -46.28, 211.57, -3209.89, 0.000, 0.000, 0.000, 17:38:29.261
23, -433.99, -71.14, 219.78, -3175.45, 0.000, 0.000, 0.000, 17:38:29.261
24, -437.33, -60.51, 247.46, -3081.53, 0.000, 0.000, 0.000, 17:38:29.261
25, -388.29, -41.66, 246.18, -3208.02, 0.000, 0.000, 0.000, 17:38:29.276
26, -382.34, -38.97, 228.94, -3297.03, 0.000, 0.000, 0.000, 17:38:29.276
27, -430.93, -61.34, 225.90, -3131.69, 0.000, 0.000, 0.000, 17:38:29.291
28, -449.15, -63.45, 263.35, -3133.85, 0.000, 0.000, 0.000, 17:38:29.291
29, -396.75, -40.65, 251.25, -3262.19, 0.000, 0.000, 0.000, 17:38:29.291
30, -376.23, -35.94, 220.86, -3234.91, 0.000, 0.000, 0.000, 17:38:29.291
31, -427.52, -63.12, 226.92, -3139.96, 0.000, 0.000, 0.000, 17:38:29.306
32, -451.68, -71.50, 255.43, -3179.69, 0.000, 0.000, 0.000, 17:38:29.306
33, -400.07, -50.88, 245.31, -3261.07, 0.000, 0.000, 0.000, 17:38:29.320
34, -384.60, -45.92, 219.39, -3262.66, 0.000, 0.000, 0.000, 17:38:29.321
35, -428.31, -63.54, 234.73, -3175.78, 0.000, 0.000, 0.000, 17:38:29.321
36, -436.61, -56.07, 255.32, -3108.88, 0.000, 0.000, 0.000, 17:38:29.321
37, -389.43, -42.01, 246.30, -3223.20, 0.000, 0.000, 0.000, 17:38:29.336
38, -371.99, -35.92, 222.24, -3298.53, 0.000, 0.000, 0.000, 17:38:29.336
39, -423.95, -57.89, 227.35, -3128.53, 0.000, 0.000, 0.000, 17:38:29.350
40, -437.81, -59.15, 263.98, -3079.99, 0.000, 0.000, 0.000, 17:38:29.350
41, -397.01, -45.11, 251.40, -3230.19, 0.000, 0.000, 0.000, 17:38:29.351
42, -382.84, -41.42, 220.84, -3249.40, 0.000, 0.000, 0.000, 17:38:29.351
43, -424.82, -50.77, 245.92, -3144.49, 0.000, 0.000, 0.000, 17:38:29.366
44, -450.36, -56.32, 269.10, -3152.73, 0.000, 0.000, 0.000, 17:38:29.366
45, -389.55, -39.18, 234.81, -3212.70, 0.000, 0.000, 0.000, 17:38:29.381
46, -389.61, -47.34, 210.39, -3268.59, 0.000, 0.000, 0.000, 17:38:29.381
47, -428.04, -64.15, 227.50, -3168.62, 0.000, 0.000, 0.000, 17:38:29.381
48, -438.59, -55.13, 235.93, -3089.93, 0.000, 0.000, 0.000, 17:38:29.381
49, -391.79, -32.43, 235.15, -3208.55, 0.000, 0.000, 0.000, 17:38:29.396
50, -382.44, -41.88, 217.91, -3351.32, 0.000, 0.000, 0.000, 17:38:29.396
51, -425.85, -57.72, 231.43, -3166.83, 0.000, 0.000, 0.000, 17:38:29.410
52, -442.09, -64.87, 246.29, -3143.58, 0.000, 0.000, 0.000, 17:38:29.410
53, -394.84, -40.62, 249.30, -3247.79, 0.000, 0.000, 0.000, 17:38:29.411
54, -381.11, -41.23, 222.29, -3227.59, 0.000, 0.000, 0.000, 17:38:29.411
55, -427.26, -59.99, 220.93, -3138.93, 0.000, 0.000, 0.000, 17:38:29.440
56, -446.28, -65.20, 247.08, -3153.82, 0.000, 0.000, 0.000, 17:38:29.440
57, -394.36, -41.36, 230.15, -3224.55, 0.000, 0.000, 0.000, 17:38:29.441
58, -378.58, -40.02, 216.25, -3271.28, 0.000, 0.000, 0.000, 17:38:29.441
59, -430.91, -62.85, 216.90, -3151.85, 0.000, 0.000, 0.000, 17:38:29.442
60, -447.75, -69.70, 235.37, -3105.90, 0.000, 0.000, 0.000, 17:38:29.442
61, -396.78, -49.09, 234.84, -3226.94, 0.000, 0.000, 0.000, 17:38:29.456
62, -404.64, -52.33, 223.74, -3377.34, 0.000, 0.000, 0.000, 17:38:29.456
63, -441.85, -74.87, 230.51, -3131.17, 0.000, 0.000, 0.000, 17:38:29.471
64, -442.40, -63.52, 261.01, -3108.25, 0.000, 0.000, 0.000, 17:38:29.471
65, -411.00, -54.79, 241.43, -3282.80, 0.000, 0.000, 0.000, 17:38:29.471
66, -390.73, -50.27, 209.83, -3275.22, 0.000, 0.000, 0.000, 17:38:29.471
67, -432.10, -66.95, 233.53, -3206.67, 0.000, 0.000, 0.000, 17:38:29.486
68, -459.39, -78.42, 239.66, -3234.33, 0.000, 0.000, 0.000, 17:38:29.486
69, -407.22, -52.24, 223.85, -3265.68, 0.000, 0.000, 0.000, 17:38:29.500
70, -387.68, -52.12, 217.10, -3280.70, 0.000, 0.000, 0.000, 17:38:29.500
71, -437.41, -65.48, 222.77, -3186.74, 0.000, 0.000, 0.000, 17:38:29.501
72, -456.55, -76.88, 230.46, -3131.75, 0.000, 0.000, 0.000, 17:38:29.501
73, -409.45, -59.50, 221.13, -3257.50, 0.000, 0.000, 0.000, 17:38:29.516
74, -398.11, -57.57, 220.37, -3368.55, 0.000, 0.000, 0.000, 17:38:29.516
75, -439.99, -72.53, 226.27, -3176.29, 0.000, 0.000, 0.000, 17:38:29.531
76, -439.05, -60.65, 267.82, -3105.84, 0.000, 0.000, 0.000, 17:38:29.531
77, -399.10, -46.52, 242.27, -3278.89, 0.000, 0.000, 0.000, 17:38:29.531
78, -386.67, -49.25, 205.25, -3240.85, 0.000, 0.000, 0.000, 17:38:29.531
79, -431.95, -63.19, 218.97, -3140.67, 0.000, 0.000, 0.000, 17:38:29.546
80, -455.38, -70.96, 247.07, -3171.94, 0.000, 0.000, 0.000, 17:38:29.546
81, -399.26, -50.75, 224.44, -3205.81, 0.000, 0.000, 0.000, 17:38:29.561
82, -391.27, -49.89, 207.07, -3244.79, 0.000, 0.000, 0.000, 17:38:29.561
83, -436.74, -69.80, 222.40, -3153.51, 0.000, 0.000, 0.000, 17:38:29.561
84, -445.27, -65.15, 238.48, -3123.18, 0.000, 0.000, 0.000, 17:38:29.561
85, -399.73, -44.93, 233.17, -3237.13, 0.000, 0.000, 0.000, 17:38:29.576
86, -392.67, -45.33, 221.32, -3289.34, 0.000, 0.000, 0.000, 17:38:29.576
87, -427.90, -62.02, 232.87, -3139.77, 0.000, 0.000, 0.000, 17:38:29.590
88, -441.03, -55.72, 259.09, -3106.77, 0.000, 0.000, 0.000, 17:38:29.590
89, -396.31, -44.59, 248.73, -3243.92, 0.000, 0.000, 0.000, 17:38:29.591
90, -385.35, -53.66, 211.78, -3256.56, 0.000, 0.000, 0.000, 17:38:29.591
91, -426.95, -62.38, 225.22, -3151.14, 0.000, 0.000, 0.000, 17:38:29.606
92, -445.05, -65.78, 242.35, -3176.57, 0.000, 0.000, 0.000, 17:38:29.606
93, -396.59, -45.95, 239.04, -3235.18, 0.000, 0.000, 0.000, 17:38:29.621
94, -378.00, -39.64, 220.58, -3260.25, 0.000, 0.000, 0.000, 17:38:29.621
95, -437.81, -69.12, 229.51, -3191.43, 0.000, 0.000, 0.000, 17:38:29.621
96, -456.26, -73.99, 229.34, -3128.64, 0.000, 0.000, 0.000, 17:38:29.621
97, -410.42, -55.71, 214.57, -3262.14, 0.000, 0.000, 0.000, 17:38:29.635
98, -400.15, -61.24, 201.68, -3353.61, 0.000, 0.000, 0.000, 17:38:29.636
99, -426.30, -65.36, 217.65, -3148.36, 0.000, 0.000, 0.000, 17:38:29.650
100, -443.44, -65.38, 243.23, -3120.64, 0.000, 0.000, 0.000, 17:38:29.651
101, -402.54, -48.12, 236.89, -3269.51, 0.000, 0.000, 0.000, 17:38:29.651
102, -373.99, -43.80, 212.56, -3233.98, 0.000, 0.000, 0.000, 17:38:29.651
103, -430.46, -63.76, 232.76, -3138.53, 0.000, 0.000, 0.000, 17:38:29.666
104, -457.43, -72.88, 245.79, -3171.98, 0.000, 0.000, 0.000, 17:38:29.666
105, -414.11, -52.36, 226.18, -3223.62, 0.000, 0.000, 0.000, 17:38:29.680
106, -385.82, -46.25, 217.91, -3262.63, 0.000, 0.000, 0.000, 17:38:29.681
107, -433.07, -71.60, 215.16, -3177.51, 0.000, 0.000, 0.000, 17:38:29.681
108, -444.70, -66.01, 236.84, -3126.17, 0.000, 0.000, 0.000, 17:38:29.681
109, -399.67, -42.40, 247.07, -3254.21, 0.000, 0.000, 0.000, 17:38:29.696
110, -384.10, -41.18, 230.13, -3310.55, 0.000, 0.000, 0.000, 17:38:29.696
111, -429.97, -68.23, 228.23, -3158.12, 0.000, 0.000, 0.000, 17:38:29.711
112, -447.26, -64.99, 253.47, -3116.49, 0.000, 0.000, 0.000, 17:38:29.711
113, -407.54, -51.78, 244.62, -3265.70, 0.000, 0.000, 0.000, 17:38:29.711
114, -384.13, -44.92, 215.00, -3241.49, 0.000, 0.000, 0.000, 17:38:29.711
115, -436.74, -67.02, 215.75, -3169.17, 0.000, 0.000, 0.000, 17:38:29.726
116, -451.43, -62.30, 261.31, -3168.66, 0.000, 0.000, 0.000, 17:38:29.726
117, -400.37, -43.26, 234.80, -3215.27, 0.000, 0.000, 0.000, 17:38:29.740
118, -386.69, -45.54, 198.98, -3283.59, 0.000, 0.000, 0.000, 17:38:29.741
119, -434.20, -69.86, 220.48, -3193.24, 0.000, 0.000, 0.000, 17:38:29.741
120, -446.18, -76.54, 241.77, -3103.34, 0.000, 0.000, 0.000, 17:38:29.741
121, -393.16, -49.02, 243.34, -3228.84, 0.000, 0.000, 0.000, 17:38:29.770
122, -380.46, -41.21, 220.03, -3286.76, 0.000, 0.000, 0.000, 17:38:29.771
123, -419.59, -54.51, 237.53, -3136.27, 0.000, 0.000, 0.000, 17:38:29.771
124, -439.22, -59.82, 248.46, -3126.19, 0.000, 0.000, 0.000, 17:38:29.771
125, -402.10, -45.28, 229.72, -3247.59, 0.000, 0.000, 0.000, 17:38:29.772
126, -382.22, -45.10, 209.50, -3266.17, 0.000, 0.000, 0.000, 17:38:29.772
127, -423.40, -63.38, 220.35, -3153.30, 0.000, 0.000, 0.000, 17:38:29.785
128, -458.47, -69.35, 247.09, -3247.59, 0.000, 0.000, 0.000, 17:38:29.786
129, -395.31, -42.00, 237.64, -3211.86, 0.000, 0.000, 0.000, 17:38:29.800
130, -375.70, -38.13, 221.03, -3248.92, 0.000, 0.000, 0.000, 17:38:29.801
131, -416.92, -53.34, 240.33, -3173.56, 0.000, 0.000, 0.000, 17:38:29.801
132, -450.05, -71.54, 241.42, -3109.90, 0.000, 0.000, 0.000, 17:38:29.801
133, -409.66, -54.15, 224.25, -3265.64, 0.000, 0.000, 0.000, 17:38:29.816
134, -393.84, -49.88, 220.07, -3302.57, 0.000, 0.000, 0.000, 17:38:29.816
135, -430.75, -69.73, 216.41, -3126.97, 0.000, 0.000, 0.000, 17:38:29.830
136, -444.52, -67.86, 242.95, -3126.44, 0.000, 0.000, 0.000, 17:38:29.830
137, -400.56, -48.74, 242.81, -3294.20, 0.000, 0.000, 0.000, 17:38:29.831
138, -387.60, -60.49, 216.20, -3302.94, 0.000, 0.000, 0.000, 17:38:29.831
139, -434.09, -69.73, 222.47, -3201.94, 0.000, 0.000, 0.000, 17:38:29.846
140, -459.54, -73.23, 247.75, -3203.33, 0.000, 0.000, 0.000, 17:38:29.846
141, -408.70, -56.47, 232.03, -3271.15, 0.000, 0.000, 0.000, 17:38:29.860
142, -391.73, -53.98, 222.14, -3284.73, 0.000, 0.000, 0.000, 17:38:29.861
143, -432.95, -65.43, 246.87, -3193.28, 0.000, 0.000, 0.000, 17:38:29.861
144, -447.92, -75.66, 239.17, -3114.05, 0.000, 0.000, 0.000, 17:38:29.861
145, -393.42, -39.35, 239.02, -3246.38, 0.000, 0.000, 0.000, 17:38:29.876
146, -394.35, -57.77, 221.13, -3330.96, 0.000, 0.000, 0.000, 17:38:29.876
147, -431.82, -60.46, 217.42, -3199.33, 0.000, 0.000, 0.000, 17:38:29.891
148, -445.92, -67.34, 250.87, -3124.39, 0.000, 0.000, 0.000, 17:38:29.891
149, -405.94, -47.10, 242.51, -3255.84, 0.000, 0.000, 0.000, 17:38:29.891
150, -379.67, -44.15, 204.97, -3252.79, 0.000, 0.000, 0.000, 17:38:29.891
151, -432.18, -69.33, 211.37, -3188.63, 0.000, 0.000, 0.000, 17:38:29.906
152, -455.46, -66.24, 253.46, -3226.01, 0.000, 0.000, 0.000, 17:38:29.906
153, -396.54, -44.29, 239.89, -3233.12, 0.000, 0.000, 0.000, 17:38:29.920
154, -378.06, -48.54, 228.38, -3289.64, 0.000, 0.000, 0.000, 17:38:29.921
155, -435.59, -65.63, 239.37, -3202.57, 0.000, 0.000, 0.000, 17:38:29.921
156, -444.97, -72.36, 239.63, -3095.61, 0.000, 0.000, 0.000, 17:38:29.921
157, -407.55, -57.56, 222.81, -3223.55, 0.000, 0.000, 0.000, 17:38:29.936
158, -389.61, -52.51, 219.04, -3310.55, 0.000, 0.000, 0.000, 17:38:29.936
159, -419.19, -57.60, 227.93, -3145.83, 0.000, 0.000, 0.000, 17:38:29.951
160, -450.00, -63.62, 245.10, -3123.99, 0.000, 0.000, 0.000, 17:38:29.951
161, -400.68, -41.66, 241.41, -3244.85, 0.000, 0.000, 0.000, 17:38:29.951
162, -382.17, -44.06, 217.19, -3292.86, 0.000, 0.000, 0.000, 17:38:29.951
163, -427.23, -58.01, 231.65, -3184.69, 0.000, 0.000, 0.000, 17:38:29.966
164, -457.12, -70.15, 244.26, -3196.04, 0.000, 0.000, 0.000, 17:38:29.966
165, -397.84, -43.16, 243.67, -3232.85, 0.000, 0.000, 0.000, 17:38:29.981
166, -377.91, -37.40, 226.63, -3273.69, 0.000, 0.000, 0.000, 17:38:29.981
167, -437.33, -64.16, 217.18, -3195.55, 0.000, 0.000, 0.000, 17:38:29.981
168, -451.99, -60.02, 249.90, -3106.55, 0.000, 0.000, 0.000, 17:38:29.981
169, -407.52, -47.70, 250.77, -3228.20, 0.000, 0.000, 0.000, 17:38:29.996
170, -390.21, -50.64, 221.60, -3345.16, 0.000, 0.000, 0.000, 17:38:29.996
171, -421.12, -57.01, 230.65, -3140.07, 0.000, 0.000, 0.000, 17:38:30.010
172, -445.87, -68.06, 248.13, -3122.31, 0.000, 0.000, 0.000, 17:38:30.010
173, -393.88, -42.75, 243.79, -3259.44, 0.000, 0.000, 0.000, 17:38:30.011
174, -378.66, -47.72, 219.60, -3266.56, 0.000, 0.000, 0.000, 17:38:30.011
175, -418.02, -64.67, 227.37, -3149.91, 0.000, 0.000, 0.000, 17:38:30.026
176, -452.30, -71.51, 239.92, -3185.22, 0.000, 0.000, 0.000, 17:38:30.026
177, -403.68, -51.63, 229.81, -3209.57, 0.000, 0.000, 0.000, 17:38:30.040
178, -377.45, -49.57, 206.69, -3276.07, 0.000, 0.000, 0.000, 17:38:30.041
179, -427.69, -67.12, 232.15, -3189.11, 0.000, 0.000, 0.000, 17:38:30.041
180, -439.88, -65.47, 251.21, -3055.03, 0.000, 0.000, 0.000, 17:38:30.041
181, -395.59, -46.10, 243.92, -3191.46, 0.000, 0.000, 0.000, 17:38:30.056
182, -387.80, -48.33, 221.18, -3282.72, 0.000, 0.000, 0.000, 17:38:30.056
183, -421.19, -64.95, 222.43, -3114.51, 0.000, 0.000, 0.000, 17:38:30.085
184, -446.22, -71.15, 242.71, -3079.69, 0.000, 0.000, 0.000, 17:38:30.086
185, -399.89, -47.39, 242.02, -3235.74, 0.000, 0.000, 0.000, 17:38:30.086
186, -380.37, -44.94, 212.31, -3238.43, 0.000, 0.000, 0.000, 17:38:30.086
187, -424.25, -59.68, 227.88, -3158.26, 0.000, 0.000, 0.000, 17:38:30.087
188, -446.17, -62.45, 258.82, -3114.31, 0.000, 0.000, 0.000, 17:38:30.087
189, -406.61, -49.71, 249.89, -3224.92, 0.000, 0.000, 0.000, 17:38:30.087
190, -388.10, -53.11, 213.93, -3274.49, 0.000, 0.000, 0.000, 17:38:30.087
191, -445.29, -71.19, 217.79, -3325.33, 0.000, 0.000, 0.000, 17:38:30.101
192, -446.05, -67.91, 245.34, -3097.29, 0.000, 0.000, 0.000, 17:38:30.101
193, -400.89, -49.41, 225.96, -3206.90, 0.000, 0.000, 0.000, 17:38:30.116
194, -389.44, -54.49, 208.63, -3285.19, 0.000, 0.000, 0.000, 17:38:30.116
195, -434.23, -77.42, 196.48, -3172.99, 0.000, 0.000, 0.000, 17:38:30.131
196, -448.32, -72.51, 238.17, -3116.20, 0.000, 0.000, 0.000, 17:38:30.131
197, -397.81, -45.66, 241.24, -3254.86, 0.000, 0.000, 0.000, 17:38:30.132
198, -383.18, -45.36, 220.89, -3263.72, 0.000, 0.000, 0.000, 17:38:30.132
199, -416.19, -59.29, 227.48, -3160.99, 0.000, 0.000, 0.000, 17:38:30.145
200, -442.63, -62.25, 252.32, -3209.64, 0.000, 0.000, 0.000, 17:38:30.145
0, -392.26, -38.07, 257.91, -3211.30, 0.000, 0.000, 0.000, 17:38:30.146
1, -368.69, -36.57, 216.28, -3245.02, 0.000, 0.000, 0.000, 17:38:30.161
2, -427.36, -61.75, 234.55, -3198.98, 0.000, 0.000, 0.000, 17:38:30.161
3, -437.08, -56.45, 245.68, -3095.19, 0.000, 0.000, 0.000, 17:38:30.176
4, -390.84, -39.51, 241.57, -3235.50, 0.000, 0.000, 0.000, 17:38:30.176
5, -383.45, -49.69, 212.55, -3319.87, 0.000, 0.000, 0.000, 17:38:30.176
6, -424.33, -64.08, 211.24, -3159.01, 0.000, 0.000, 0.000, 17:38:30.176
7, -436.46, -53.10, 256.85, -3120.93, 0.000, 0.000, 0.000, 17:38:30.191
8, -402.97, -45.35, 241.97, -3286.69, 0.000, 0.000, 0.000, 17:38:30.191
9, -376.73, -41.36, 228.04, -3281.27, 0.000, 0.000, 0.000, 17:38:30.205
10, -424.72, -60.53, 243.00, -3136.81, 0.000, 0.000, 0.000, 17:38:30.205
11, -443.54, -64.01, 237.15, -3127.36, 0.000, 0.000, 0.000, 17:38:30.206
12, -401.95, -52.90, 235.93, -3226.60, 0.000, 0.000, 0.000, 17:38:30.206
13, -380.16, -48.90, 225.57, -3276.24, 0.000, 0.000, 0.000, 17:38:30.221
14, -431.75, -71.13, 230.51, -3209.11, 0.000, 0.000, 0.000, 17:38:30.221
15, -452.11, -82.12, 235.65, -3132.79, 0.000, 0.000, 0.000, 17:38:30.235
16, -401.67, -44.99, 250.60, -3250.48, 0.000, 0.000, 0.000, 17:38:30.236
17, -382.95, -45.86, 222.92, -3298.97, 0.000, 0.000, 0.000, 17:38:30.236
18, -431.17, -64.54, 227.36, -3156.97, 0.000, 0.000, 0.000, 17:38:30.236
19, -445.86, -63.32, 256.12, -3122.79, 0.000, 0.000, 0.000, 17:38:30.251
20, -411.14, -42.65, 246.42, -3259.13, 0.000, 0.000, 0.000, 17:38:30.251
21, -383.29, -40.17, 221.96, -3287.65, 0.000, 0.000, 0.000, 17:38:30.265
22, -435.28, -66.73, 230.69, -3186.96, 0.000, 0.000, 0.000, 17:38:30.266
23, -453.58, -65.73, 258.98, -3153.71, 0.000, 0.000, 0.000, 17:38:30.266
24, -406.41, -40.96, 254.34, -3227.71, 0.000, 0.000, 0.000, 17:38:30.266
25, -378.98, -41.76, 224.75, -3281.50, 0.000, 0.000, 0.000, 17:38:30.281
26, -432.61, -57.19, 236.46, -3259.40, 0.000, 0.000, 0.000, 17:38:30.281
27, -445.63, -58.64, 261.62, -3119.40, 0.000, 0.000, 0.000, 17:38:30.295
28, -400.74, -41.27, 244.73, -3244.74, 0.000, 0.000, 0.000, 17:38:30.295
29, -381.25, -41.15, 205.93, -3353.04, 0.000, 0.000, 0.000, 17:38:30.296
30, -423.61, -58.61, 230.15, -3161.70, 0.000, 0.000, 0.000, 17:38:30.296
31, -447.16, -63.33, 231.37, -3114.39, 0.000, 0.000, 0.000, 17:38:30.311
32, -408.10, -49.90, 225.89, -3325.80, 0.000, 0.000, 0.000, 17:38:30.311
33, -390.35, -49.83, 205.73, -3318.56, 0.000, 0.000, 0.000, 17:38:30.326
34, -419.96, -59.17, 238.69, -3187.92, 0.000, 0.000, 0.000, 17:38:30.326
35, -444.35, -60.72, 267.06, -3123.06, 0.000, 0.000, 0.000, 17:38:30.326
36, -402.71, -52.55, 247.97, -3214.63, 0.000, 0.000, 0.000, 17:38:30.326
37, -379.89, -48.61, 211.55, -3261.77, 0.000, 0.000, 0.000, 17:38:30.341
38, -429.58, -66.79, 229.62, -3200.67, 0.000, 0.000, 0.000, 17:38:30.341
39, -443.11, -64.12, 262.47, -3099.58, 0.000, 0.000, 0.000, 17:38:30.356
40, -405.34, -46.13, 234.96, -3234.22, 0.000, 0.000, 0.000, 17:38:30.356
41, -389.20, -49.26, 212.87, -3295.47, 0.000, 0.000, 0.000, 17:38:30.356
42, -433.76, -62.98, 219.67, -3157.67, 0.000, 0.000, 0.000, 17:38:30.356
43, -453.40, -69.53, 245.60, -3131.13, 0.000, 0.000, 0.000, 17:38:30.371
44, -413.17, -48.17, 251.89, -3282.18, 0.000, 0.000, 0.000, 17:38:30.371
45, -378.12, -35.30, 228.66, -3252.11, 0.000, 0.000, 0.000, 17:38:30.401
46, -427.82, -60.67, 219.24, -3123.25, 0.000, 0.000, 0.000, 17:38:30.401
47, -448.94, -61.23, 249.27, -3123.12, 0.000, 0.000, 0.000, 17:38:30.401
48, -405.85, -46.82, 236.60, -3229.09, 0.000, 0.000, 0.000, 17:38:30.402
49, -385.89, -40.82, 224.03, -3316.24, 0.000, 0.000, 0.000, 17:38:30.402
50, -433.49, -58.19, 218.23, -3193.62, 0.000, 0.000, 0.000, 17:38:30.402
51, -448.54, -61.52, 240.97, -3110.60, 0.000, 0.000, 0.000, 17:38:30.402
52, -413.44, -51.53, 232.84, -3245.02, 0.000, 0.000, 0.000, 17:38:30.402
53, -395.11, -42.41, 243.52, -3414.01, 0.000, 0.000, 0.000, 17:38:30.416
54, -421.64, -55.88, 218.63, -3147.19, 0.000, 0.000, 0.000, 17:38:30.416
55, -434.05, -58.13, 253.33, -3107.38, 0.000, 0.000, 0.000, 17:38:30.431
56, -403.08, -48.94, 231.73, -3223.06, 0.000, 0.000, 0.000, 17:38:30.431
57, -371.74, -37.75, 208.03, -3235.63, 0.000, 0.000, 0.000, 17:38:30.445
58, -416.99, -55.49, 220.32, -3186.15, 0.000, 0.000, 0.000, 17:38:30.445
59, -447.75, -63.42, 242.75, -3158.37, 0.000, 0.000, 0.000, 17:38:30.446
60, -398.78, -39.21, 240.59, -3197.72, 0.000, 0.000, 0.000, 17:38:30.446
61, -374.50, -42.34, 218.55, -3263.79, 0.000, 0.000, 0.000, 17:38:30.461
62, -431.71, -63.40, 231.16, -3217.87, 0.000, 0.000, 0.000, 17:38:30.461
63, -446.88, -60.55, 239.33, -3105.03, 0.000, 0.000, 0.000, 17:38:30.475
64, -406.69, -53.11, 242.76, -3225.47, 0.000, 0.000, 0.000, 17:38:30.476
65, -392.06, -46.68, 221.69, -3322.53, 0.000, 0.000, 0.000, 17:38:30.476
66, -419.38, -62.70, 229.80, -3149.43, 0.000, 0.000, 0.000, 17:38:30.476
67, -454.05, -71.07, 245.44, -3099.14, 0.000, 0.000, 0.000, 17:38:30.491
68, -407.36, -49.45, 254.13, -3261.58, 0.000, 0.000, 0.000, 17:38:30.491
69, -386.14, -49.86, 223.82, -3270.11, 0.000, 0.000, 0.000, 17:38:30.505
70, -429.94, -66.68, 218.12, -3166.97, 0.000, 0.000, 0.000, 17:38:30.506
71, -453.07, -75.37, 226.82, -3155.11, 0.000, 0.000, 0.000, 17:38:30.506
72, -401.08, -45.73, 233.85, -3194.17, 0.000, 0.000, 0.000, 17:38:30.506
73, -375.67, -42.04, 217.55, -3274.53, 0.000, 0.000, 0.000, 17:38:30.521
74, -422.85, -62.22, 239.24, -3197.13, 0.000, 0.000, 0.000, 17:38:30.521
75, -450.26, -73.52, 231.31, -3088.05, 0.000, 0.000, 0.000, 17:38:30.536
76, -407.39, -53.82, 240.57, -3247.70, 0.000, 0.000, 0.000, 17:38:30.536
77, -385.49, -42.80, 209.72, -3297.61, 0.000, 0.000, 0.000, 17:38:30.536
78, -424.88, -63.64, 218.94, -3114.50, 0.000, 0.000, 0.000, 17:38:30.536
79, -443.10, -66.97, 250.78, -3088.94, 0.000, 0.000, 0.000, 17:38:30.551
80, -405.77, -51.94, 247.80, -3275.27, 0.000, 0.000, 0.000, 17:38:30.551
81, -383.81, -47.09, 217.95, -3277.79, 0.000, 0.000, 0.000, 17:38:30.565
82, -421.85, -59.05, 225.93, -3168.82, 0.000, 0.000, 0.000, 17:38:30.566
83, -446.92, -62.91, 248.42, -3165.15, 0.000, 0.000, 0.000, 17:38:30.566
84, -404.14, -44.87, 245.99, -3216.46, 0.000, 0.000, 0.000, 17:38:30.566
85, -382.43, -47.19, 220.33, -3288.36, 0.000, 0.000, 0.000, 17:38:30.581
86, -430.31, -64.43, 229.00, -3241.06, 0.000, 0.000, 0.000, 17:38:30.581
87, -445.24, -60.76, 245.05, -3093.61, 0.000, 0.000, 0.000, 17:38:30.596
88, -402.24, -42.88, 241.01, -3235.47, 0.000, 0.000, 0.000, 17:38:30.596
89, -379.71, -37.53, 226.25, -3308.59, 0.000, 0.000, 0.000, 17:38:30.596
90, -423.92, -60.89, 230.73, -3191.59, 0.000, 0.000, 0.000, 17:38:30.596
91, -449.13, -64.78, 253.91, -3144.16, 0.000, 0.000, 0.000, 17:38:30.611
92, -414.06, -48.88, 251.51, -3297.96, 0.000, 0.000, 0.000, 17:38:30.611
93, -376.99, -34.47, 214.66, -3289.97, 0.000, 0.000, 0.000, 17:38:30.625
94, -420.69, -54.53, 224.80, -3209.80, 0.000, 0.000, 0.000, 17:38:30.626
95, -442.57, -51.74, 262.28, -3141.78, 0.000, 0.000, 0.000, 17:38:30.626
96, -400.89, -38.58, 251.43, -3188.31, 0.000, 0.000, 0.000, 17:38:30.626
97, -380.36, -27.55, 220.74, -3283.72, 0.000, 0.000, 0.000, 17:38:30.641
98, -429.81, -55.21, 220.76, -3220.01, 0.000, 0.000, 0.000, 17:38:30.641
99, -439.25, -57.87, 254.06, -3071.04, 0.000, 0.000, 0.000, 17:38:30.656
100, -398.55, -37.13, 246.04, -3185.94, 0.000, 0.000, 0.000, 17:38:30.656
101, -383.79, -41.43, 229.13, -3289.44, 0.000, 0.000, 0.000, 17:38:30.656
102, -422.09, -58.56, 222.89, -3135.56, 0.000, 0.000, 0.000, 17:38:30.656
103, -452.50, -67.22, 250.47, -3138.49, 0.000, 0.000, 0.000, 17:38:30.671
104, -413.30, -44.96, 236.23, -3284.76, 0.000, 0.000, 0.000, 17:38:30.671
105, -379.40, -39.64, 205.34, -3272.79, 0.000, 0.000, 0.000, 17:38:30.686
106, -419.24, -53.70, 218.31, -3161.89, 0.000, 0.000, 0.000, 17:38:30.686
107, -443.59, -55.82, 254.40, -3140.33, 0.000, 0.000, 0.000, 17:38:30.686
108, -400.74, -41.83, 248.56, -3205.81, 0.000, 0.000, 0.000, 17:38:30.686
109, -376.29, -37.83, 218.09, -3257.04, 0.000, 0.000, 0.000, 17:38:30.701
110, -421.00, -54.31, 235.68, -3228.23, 0.000, 0.000, 0.000, 17:38:30.701
111, -451.26, -66.05, 249.77, -3129.27, 0.000, 0.000, 0.000, 17:38:30.731
112, -401.65, -40.50, 265.36, -3263.24, 0.000, 0.000, 0.000, 17:38:30.731
113, -381.10, -36.43, 216.03, -3327.46, 0.000, 0.000, 0.000, 17:38:30.731
114, -413.69, -45.30, 233.11, -3162.55, 0.000, 0.000, 0.000, 17:38:30.731
115, -443.17, -63.81, 240.40, -3143.32, 0.000, 0.000, 0.000, 17:38:30.732
116, -401.98, -46.97, 227.62, -3259.23, 0.000, 0.000, 0.000, 17:38:30.732
117, -374.06, -39.21, 221.34, -3298.44, 0.000, 0.000, 0.000, 17:38:30.733
118, -411.70, -56.11, 235.23, -3169.57, 0.000, 0.000, 0.000, 17:38:30.733
119, -456.83, -67.36, 253.10, -3265.61, 0.000, 0.000, 0.000, 17:38:30.746
120, -390.00, -38.09, 235.29, -3216.35, 0.000, 0.000, 0.000, 17:38:30.746
121, -364.41, -31.33, 226.47, -3282.65, 0.000, 0.000, 0.000, 17:38:30.761
122, -418.78, -57.95, 218.99, -3198.07, 0.000, 0.000, 0.000, 17:38:30.761
123, -442.25, -67.29, 244.54, -3092.15, 0.000, 0.000, 0.000, 17:38:30.776
124, -406.04, -49.84, 239.34, -3206.83, 0.000, 0.000, 0.000, 17:38:30.776
125, -388.94, -46.06, 217.76, -3304.60, 0.000, 0.000, 0.000, 17:38:30.776
126, -427.86, -60.80, 223.66, -3151.44, 0.000, 0.000, 0.000, 17:38:30.776
127, -449.57, -68.53, 257.57, -3106.68, 0.000, 0.000, 0.000, 17:38:30.791
128, -412.79, -45.49, 254.76, -3249.21, 0.000, 0.000, 0.000, 17:38:30.791
129, -378.90, -46.93, 198.43, -3236.59, 0.000, 0.000, 0.000, 17:38:30.805
130, -420.92, -67.07, 212.04, -3170.99, 0.000, 0.000, 0.000, 17:38:30.805
131, -444.50, -71.24, 247.63, -3154.35, 0.000, 0.000, 0.000, 17:38:30.806
132, -402.37, -46.65, 245.10, -3190.98, 0.000, 0.000, 0.000, 17:38:30.806
133, -378.67, -45.39, 207.89, -3292.46, 0.000, 0.000, 0.000, 17:38:30.821
134, -433.00, -72.58, 217.13, -3244.95, 0.000, 0.000, 0.000, 17:38:30.821
135, -448.12, -70.92, 242.60, -3123.24, 0.000, 0.000, 0.000, 17:38:30.836
136, -411.62, -54.29, 239.42, -3238.09, 0.000, 0.000, 0.000, 17:38:30.836
137, -384.71, -45.47, 225.39, -3314.19, 0.000, 0.000, 0.000, 17:38:30.836
138, -424.84, -59.00, 218.50, -3148.00, 0.000, 0.000, 0.000, 17:38:30.837
139, -442.83, -60.18, 245.61, -3071.10, 0.000, 0.000, 0.000, 17:38:30.851
140, -413.15, -46.23, 244.37, -3258.81, 0.000, 0.000, 0.000, 17:38:30.851
141, -385.94, -36.99, 211.68, -3294.01, 0.000, 0.000, 0.000, 17:38:30.865
142, -428.59, -53.29, 228.14, -3189.14, 0.000, 0.000, 0.000, 17:38:30.866
143, -456.38, -63.78, 247.87, -3132.40, 0.000, 0.000, 0.000, 17:38:30.866
144, -407.87, -39.04, 236.52, -3155.03, 0.000, 0.000, 0.000, 17:38:30.866
145, -386.61, -34.92, 214.08, -3278.98, 0.000, 0.000, 0.000, 17:38:30.881
146, -426.86, -52.89, 235.08, -3204.82, 0.000, 0.000, 0.000, 17:38:30.881
147, -447.05, -57.04, 243.32, -3087.72, 0.000, 0.000, 0.000, 17:38:30.896
148, -412.20, -45.80, 236.18, -3194.45, 0.000, 0.000, 0.000, 17:38:30.896
149, -385.92, -37.13, 227.35, -3323.71, 0.000, 0.000, 0.000, 17:38:30.896
150, -420.83, -54.68, 216.23, -3147.35, 0.000, 0.000, 0.000, 17:38:30.896
151, -455.01, -73.28, 239.79, -3117.26, 0.000, 0.000, 0.000, 17:38:30.911
152, -414.60, -51.58, 247.21, -3246.32, 0.000, 0.000, 0.000, 17:38:30.911
153, -382.21, -40.90, 222.08, -3262.72, 0.000, 0.000, 0.000, 17:38:30.926
154, -422.70, -61.94, 227.14, -3154.62, 0.000, 0.000, 0.000, 17:38:30.926
155, -451.59, -67.67, 252.07, -3126.37, 0.000, 0.000, 0.000, 17:38:30.926
156, -411.13, -46.90, 238.74, -3194.05, 0.000, 0.000, 0.000, 17:38:30.926
157, -383.44, -37.47, 220.66, -3246.87, 0.000, 0.000, 0.000, 17:38:30.941
158, -424.35, -56.00, 230.72, -3215.33, 0.000, 0.000, 0.000, 17:38:30.941
159, -450.79, -60.75, 262.98, -3120.71, 0.000, 0.000, 0.000, 17:38:30.955
160, -418.21, -49.01, 235.82, -3247.57, 0.000, 0.000, 0.000, 17:38:30.956
161, -396.89, -42.61, 217.51, -3337.01, 0.000, 0.000, 0.000, 17:38:30.956
162, -427.62, -57.42, 226.87, -3198.19, 0.000, 0.000, 0.000, 17:38:30.956
163, -448.91, -65.06, 256.76, -3127.84, 0.000, 0.000, 0.000, 17:38:30.971
164, -423.93, -47.87, 243.29, -3298.90, 0.000, 0.000, 0.000, 17:38:30.975
165, -379.50, -30.43, 210.05, -3268.71, 0.000, 0.000, 0.000, 17:38:30.985
166, -415.49, -50.23, 226.48, -3167.60, 0.000, 0.000, 0.000, 17:38:30.986
167, -448.22, -59.55, 263.99, -3132.24, 0.000, 0.000, 0.000, 17:38:30.986
168, -408.23, -49.91, 230.93, -3197.96, 0.000, 0.000, 0.000, 17:38:30.986
169, -383.35, -43.17, 219.32, -3276.14, 0.000, 0.000, 0.000, 17:38:31.001
170, -426.20, -61.93, 234.09, -3226.13, 0.000, 0.000, 0.000, 17:38:31.001
171, -438.21, -63.21, 247.15, -3076.16, 0.000, 0.000, 0.000, 17:38:31.016
172, -398.87, -45.21, 234.62, -3192.32, 0.000, 0.000, 0.000, 17:38:31.016
173, -382.45, -39.94, 227.13, -3291.69, 0.000, 0.000, 0.000, 17:38:31.016
174, -418.32, -63.31, 229.01, -3166.61, 0.000, 0.000, 0.000, 17:38:31.016
175, -443.45, -57.64, 255.79, -3141.27, 0.000, 0.000, 0.000, 17:38:31.045
176, -412.71, -41.93, 261.23, -3261.10, 0.000, 0.000, 0.000, 17:38:31.046
177, -375.11, -35.34, 232.35, -3255.84, 0.000, 0.000, 0.000, 17:38:31.046
178, -411.66, -55.64, 224.88, -3155.53, 0.000, 0.000, 0.000, 17:38:31.046
179, -439.75, -58.03, 245.75, -3086.77, 0.000, 0.000, 0.000, 17:38:31.047
180, -407.62, -46.55, 239.91, -3219.19, 0.000, 0.000, 0.000, 17:38:31.047
181, -377.76, -36.12, 218.66, -3296.98, 0.000, 0.000, 0.000, 17:38:31.061
182, -424.61, -58.17, 237.10, -3291.73, 0.000, 0.000, 0.000, 17:38:31.061
183, -448.02, -70.04, 240.80, -3110.35, 0.000, 0.000, 0.000, 17:38:31.076
184, -412.63, -47.07, 238.69, -3223.44, 0.000, 0.000, 0.000, 17:38:31.076
185, -373.79, -37.00, 224.93, -3289.60, 0.000, 0.000, 0.000, 17:38:31.076
186, -421.28, -63.93, 227.06, -3159.80, 0.000, 0.000, 0.000, 17:38:31.076
187, -442.13, -65.59, 250.90, -3108.77, 0.000, 0.000, 0.000, 17:38:31.091
188, -410.21, -47.65, 257.50, -3271.07, 0.000, 0.000, 0.000, 17:38:31.091
189, -375.22, -37.69, 224.46, -3281.13, 0.000, 0.000, 0.000, 17:38:31.105
190, -414.86, -57.03, 225.52, -3166.47, 0.000, 0.000, 0.000, 17:38:31.106
191, -445.84, -63.46, 250.93, -3129.05, 0.000, 0.000, 0.000, 17:38:31.106
192, -411.71, -42.51, 241.22, -3209.61, 0.000, 0.000, 0.000, 17:38:31.106
193, -376.82, -30.83, 218.98, -3304.73, 0.000, 0.000, 0.000, 17:38:31.121
194, -427.30, -59.37, 226.82, -3249.61, 0.000, 0.000, 0.000, 17:38:31.121
195, -438.85, -55.24, 254.50, -3089.12, 0.000, 0.000, 0.000, 17:38:31.135
196, -399.86, -37.84, 252.57, -3197.53, 0.000, 0.000, 0.000, 17:38:31.135
197, -383.95, -38.41, 219.74, -3354.54, 0.000, 0.000, 0.000, 17:38:31.136
198, -417.57, -60.57, 218.31, -3219.01, 0.000, 0.000, 0.000, 17:38:31.136
199, -449.56, -67.42, 244.52, -3127.54, 0.000, 0.000, 0.000, 17:38:31.150
200, -413.13, -51.67, 254.83, -3311.02, 0.000, 0.000, 0.000, 17:38:31.151
0, -381.18, -41.90, 223.17, -3291.94, 0.000, 0.000, 0.000, 17:38:31.151
1, -412.00, -56.73, 222.08, -3194.62, 0.000, 0.000, 0.000, 17:38:31.166
2, -451.29, -65.98, 258.64, -3159.11, 0.000, 0.000, 0.000, 17:38:31.166
3, -397.77, -40.38, 251.30, -3198.38, 0.000, 0.000, 0.000, 17:38:31.181
4, -373.62, -32.19, 232.67, -3283.24, 0.000, 0.000, 0.000, 17:38:31.181
5, -411.53, -47.64, 232.94, -3209.98, 0.000, 0.000, 0.000, 17:38:31.181
6, -440.04, -60.09, 253.40, -3111.99, 0.000, 0.000, 0.000, 17:38:31.181
7, -401.21, -40.49, 245.45, -3235.62, 0.000, 0.000, 0.000, 17:38:31.196
8, -375.33, -33.17, 222.21, -3342.12, 0.000, 0.000, 0.000, 17:38:31.196
9, -406.57, -50.40, 223.83, -3176.33, 0.000, 0.000, 0.000, 17:38:31.210
10, -433.19, -53.19, 252.21, -3121.34, 0.000, 0.000, 0.000, 17:38:31.211
11, -405.96, -45.28, 235.95, -3237.28, 0.000, 0.000, 0.000, 17:38:31.211
12, -374.20, -34.52, 213.95, -3258.24, 0.000, 0.000, 0.000, 17:38:31.211
13, -413.11, -54.03, 211.54, -3198.05, 0.000, 0.000, 0.000, 17:38:31.226
14, -452.89, -63.89, 240.00, -3178.76, 0.000, 0.000, 0.000, 17:38:31.226
15, -401.23, -42.72, 236.69, -3214.55, 0.000, 0.000, 0.000, 17:38:31.241
16, -383.43, -43.82, 213.49, -3277.84, 0.000, 0.000, 0.000, 17:38:31.241
17, -426.85, -66.52, 222.28, -3200.04, 0.000, 0.000, 0.000, 17:38:31.241
18, -453.19, -75.95, 243.92, -3110.62, 0.000, 0.000, 0.000, 17:38:31.241
19, -409.54, -50.16, 263.08, -3232.33, 0.000, 0.000, 0.000, 17:38:31.256
20, -383.89, -43.24, 254.43, -3320.58, 0.000, 0.000, 0.000, 17:38:31.256
21, -415.76, -58.98, 235.33, -3161.17, 0.000, 0.000, 0.000, 17:38:31.271
22, -446.35, -61.11, 253.98, -3103.67, 0.000, 0.000, 0.000, 17:38:31.271
23, -417.11, -46.04, 255.09, -3234.12, 0.000, 0.000, 0.000, 17:38:31.271
24, -382.37, -36.13, 213.79, -3249.05, 0.000, 0.000, 0.000, 17:38:31.271
25, -416.89, -56.78, 222.62, -3176.21, 0.000, 0.000, 0.000, 17:38:31.286
26, -446.35, -61.86, 251.01, -3160.14, 0.000, 0.000, 0.000, 17:38:31.286
27, -409.97, -42.43, 236.18, -3179.46, 0.000, 0.000, 0.000, 17:38:31.300
28, -381.53, -42.06, 205.49, -3267.64, 0.000, 0.000, 0.000, 17:38:31.300
29, -416.26, -52.37, 215.44, -3225.91, 0.000, 0.000, 0.000, 17:38:31.301
30, -441.00, -61.55, 231.63, -3113.79, 0.000, 0.000, 0.000, 17:38:31.301
31, -409.46, -49.66, 225.64, -3222.54, 0.000, 0.000, 0.000, 17:38:31.316
32, -380.45, -39.63, 245.01, -3328.40, 0.000, 0.000, 0.000, 17:38:31.316
33, -416.46, -57.80, 223.82, -3131.90, 0.000, 0.000, 0.000, 17:38:31.330
34, -433.79, -63.70, 237.58, -3065.87, 0.000, 0.000, 0.000, 17:38:31.331
35, -402.94, -47.02, 240.68, -3221.36, 0.000, 0.000, 0.000, 17:38:31.331
36, -372.02, -36.26, 231.94, -3236.28, 0.000, 0.000, 0.000, 17:38:31.331
37, -413.50, -57.35, 244.98, -3146.88, 0.000, 0.000, 0.000, 17:38:31.361
38, -453.89, -65.10, 251.13, -3136.88, 0.000, 0.000, 0.000, 17:38:31.361
39, -410.74, -50.46, 240.58, -3201.40, 0.000, 0.000, 0.000, 17:38:31.361
40, -378.88, -41.55, 229.86, -3258.04, 0.000, 0.000, 0.000, 17:38:31.361
41, -417.99, -58.82, 209.57, -3153.80, 0.000, 0.000, 0.000, 17:38:31.362
42, -442.29, -61.92, 232.77, -3103.26, 0.000, 0.000, 0.000, 17:38:31.362
43, -407.46, -46.16, 238.73, -3225.75, 0.000, 0.000, 0.000, 17:38:31.376
44, -392.28, -44.06, 229.56, -3399.71, 0.000, 0.000, 0.000, 17:38:31.376
45, -409.94, -55.07, 213.80, -3149.23, 0.000, 0.000, 0.000, 17:38:31.391
46, -445.73, -62.24, 241.95, -3113.07, 0.000, 0.000, 0.000, 17:38:31.391
47, -418.03, -50.19, 247.58, -3246.21, 0.000, 0.000, 0.000, 17:38:31.391
48, -384.69, -44.43, 215.76, -3251.48, 0.000, 0.000, 0.000, 17:38:31.391
49, -414.44, -56.59, 213.25, -3174.07, 0.000, 0.000, 0.000, 17:38:31.406
50, -454.21, -64.30, 250.49, -3171.63, 0.000, 0.000, 0.000, 17:38:31.406
51, -412.05, -49.13, 248.67, -3154.03, 0.000, 0.000, 0.000, 17:38:31.421
52, -375.88, -38.46, 236.07, -3226.33, 0.000, 0.000, 0.000, 17:38:31.421
53, -419.18, -60.41, 221.02, -3196.61, 0.000, 0.000, 0.000, 17:38:31.421
54, -444.82, -65.43, 243.33, -3085.00, 0.000, 0.000, 0.000, 17:38:31.421
55, -409.64, -47.35, 263.27, -3237.99, 0.000, 0.000, 0.000, 17:38:31.436
56, -390.88, -46.23, 222.70, -3343.03, 0.000, 0.000, 0.000, 17:38:31.436
57, -418.58, -60.07, 221.88, -3200.85, 0.000, 0.000, 0.000, 17:38:31.450
58, -440.96, -56.75, 246.69, -3112.11, 0.000, 0.000, 0.000, 17:38:31.451
59, -405.07, -42.79, 249.48, -3230.36, 0.000, 0.000, 0.000, 17:38:31.451
60, -365.61, -32.54, 225.57, -3258.64, 0.000, 0.000, 0.000, 17:38:31.451
61, -404.08, -46.47, 232.48, -3171.42, 0.000, 0.000, 0.000, 17:38:31.466
62, -444.39, -57.92, 243.66, -3161.32, 0.000, 0.000, 0.000, 17:38:31.466
63, -399.94, -42.49, 238.77, -3196.31, 0.000, 0.000, 0.000, 17:38:31.481
64, -372.05, -36.17, 220.37, -3275.08, 0.000, 0.000, 0.000, 17:38:31.481
65, -409.00, -56.73, 213.17, -3214.66, 0.000, 0.000, 0.000, 17:38:31.481
66, -438.07, -58.69, 249.02, -3080.58, 0.000, 0.000, 0.000, 17:38:31.481
67, -403.57, -46.29, 251.04, -3215.21, 0.000, 0.000, 0.000, 17:38:31.496
68, -375.41, -37.65, 210.85, -3309.64, 0.000, 0.000, 0.000, 17:38:31.496
69, -414.25, -57.85, 225.33, -3164.34, 0.000, 0.000, 0.000, 17:38:31.510
70, -442.09, -69.18, 238.00, -3093.52, 0.000, 0.000, 0.000, 17:38:31.511
71, -412.79, -55.70, 244.57, -3217.15, 0.000, 0.000, 0.000, 17:38:31.511
72, -375.31, -47.85, 233.04, -3242.19, 0.000, 0.000, 0.000, 17:38:31.511
73, -416.60, -63.17, 226.12, -3187.80, 0.000, 0.000, 0.000, 17:38:31.526
74, -451.10, -68.11, 247.61, -3143.93, 0.000, 0.000, 0.000, 17:38:31.526
75, -412.54, -50.18, 241.48, -3177.02, 0.000, 0.000, 0.000, 17:38:31.541
76, -374.30, -37.35, 225.60, -3253.27, 0.000, 0.000, 0.000, 17:38:31.541
77, -421.88, -61.00, 219.58, -3179.93, 0.000, 0.000, 0.000, 17:38:31.541
78, -446.36, -68.54, 251.50, -3090.14, 0.000, 0.000, 0.000, 17:38:31.541
79, -412.94, -47.56, 253.67, -3219.91, 0.000, 0.000, 0.000, 17:38:31.556
80, -387.22, -37.79, 230.02, -3323.19, 0.000, 0.000, 0.000, 17:38:31.556
81, -414.28, -59.88, 227.39, -3169.67, 0.000, 0.000, 0.000, 17:38:31.571
82, -441.37, -65.27, 256.94, -3108.25, 0.000, 0.000, 0.000, 17:38:31.571
83, -415.77, -49.58, 258.24, -3223.94, 0.000, 0.000, 0.000, 17:38:31.571
84, -383.90, -43.11, 231.12, -3264.51, 0.000, 0.000, 0.000, 17:38:31.571
85, -414.20, -57.78, 239.21, -3166.06, 0.000, 0.000, 0.000, 17:38:31.586
86, -454.83, -70.77, 267.63, -3177.32, 0.000, 0.000, 0.000, 17:38:31.586
87, -419.83, -58.15, 247.48, -3218.11, 0.000, 0.000, 0.000, 17:38:31.600
88, -386.16, -43.93, 226.65, -3283.85, 0.000, 0.000, 0.000, 17:38:31.601
89, -416.33, -62.08, 247.21, -3209.41, 0.000, 0.000, 0.000, 17:38:31.601
90, -443.09, -65.27, 256.22, -3095.95, 0.000, 0.000, 0.000, 17:38:31.601
91, -408.69, -46.44, 260.40, -3214.85, 0.000, 0.000, 0.000, 17:38:31.616
92, -380.74, -35.16, 253.09, -3320.22, 0.000, 0.000, 0.000, 17:38:31.616
93, -409.99, -52.65, 221.30, -3185.21, 0.000, 0.000, 0.000, 17:38:31.631
94, -444.37, -69.18, 237.17, -3114.61, 0.000, 0.000, 0.000, 17:38:31.631
95, -407.11, -44.80, 255.62, -3216.64, 0.000, 0.000, 0.000, 17:38:31.631
96, -371.12, -37.45, 210.02, -3263.59, 0.000, 0.000, 0.000, 17:38:31.631
97, -409.97, -51.65, 229.64, -3213.43, 0.000, 0.000, 0.000, 17:38:31.646
98, -444.14, -63.80, 258.35, -3171.85, 0.000, 0.000, 0.000, 17:38:31.646
99, -407.14, -52.62, 237.98, -3208.13, 0.000, 0.000, 0.000, 17:38:31.661
100, -370.90, -33.80, 230.03, -3302.56, 0.000, 0.000, 0.000, 17:38:31.661
101, -414.80, -58.91, 216.76, -3215.48, 0.000, 0.000, 0.000, 17:38:31.661
102, -439.61, -56.32, 249.08, -3110.01, 0.000, 0.000, 0.000, 17:38:31.661
103, -409.29, -44.90, 239.68, -3190.55, 0.000, 0.000, 0.000, 17:38:31.690
104, -381.60, -35.18, 227.08, -3341.94, 0.000, 0.000, 0.000, 17:38:31.690
105, -418.11, -58.10, 214.23, -3202.50, 0.000, 0.000, 0.000, 17:38:31.691
106, -448.15, -64.80, 245.62, -3126.66, 0.000, 0.000, 0.000, 17:38:31.691
107, -409.62, -49.51, 260.97, -3201.38, 0.000, 0.000, 0.000, 17:38:31.692
108, -382.15, -45.72, 226.71, -3258.46, 0.000, 0.000, 0.000, 17:38:31.692
109, -414.18, -58.82, 216.88, -3187.64, 0.000, 0.000, 0.000, 17:38:31.706
110, -457.75, -76.66, 262.44, -3224.97, 0.000, 0.000, 0.000, 17:38:31.706
111, -413.39, -55.40, 244.24, -3194.47, 0.000, 0.000, 0.000, 17:38:31.721
112, -381.00, -40.82, 222.57, -3252.37, 0.000, 0.000, 0.000, 17:38:31.721
113, -415.60, -54.20, 212.91, -3205.75, 0.000, 0.000, 0.000, 17:38:31.721
114, -436.92, -57.33, 246.59, -3080.19, 0.000, 0.000, 0.000, 17:38:31.721
115, -404.62, -44.80, 247.10, -3220.61, 0.000, 0.000, 0.000, 17:38:31.736
116, -382.68, -41.70, 235.99, -3340.26, 0.000, 0.000, 0.000, 17:38:31.736
117, -419.34, -59.01, 219.28, -3195.07, 0.000, 0.000, 0.000, 17:38:31.750
118, -456.25, -70.93, 233.78, -3148.29, 0.000, 0.000, 0.000, 17:38:31.751
119, -410.92, -42.66, 248.98, -3247.67, 0.000, 0.000, 0.000, 17:38:31.751
120, -376.74, -39.01, 224.53, -3278.82, 0.000, 0.000, 0.000, 17:38:31.751
121, -410.55, -56.43, 221.04, -3187.03, 0.000, 0.000, 0.000, 17:38:31.766
122, -444.91, -66.32, 246.08, -3163.36, 0.000, 0.000, 0.000, 17:38:31.766
123, -407.69, -45.85, 248.97, -3204.17, 0.000, 0.000, 0.000, 17:38:31.780
124, -377.87, -39.99, 222.01, -3262.02, 0.000, 0.000, 0.000, 17:38:31.781
125, -414.64, -58.44, 226.08, -3194.06, 0.000, 0.000, 0.000, 17:38:31.781
126, -439.73, -65.74, 254.91, -3057.45, 0.000, 0.000, 0.000, 17:38:31.781
127, -414.64, -54.10, 257.26, -3190.96, 0.000, 0.000, 0.000, 17:38:31.796
128, -389.41, -51.16, 219.39, -3324.28, 0.000, 0.000, 0.000, 17:38:31.796
129, -416.60, -65.90, 217.12, -3164.54, 0.000, 0.000, 0.000, 17:38:31.811
130, -449.22, -71.58, 238.51, -3130.24, 0.000, 0.000, 0.000, 17:38:31.811
131, -414.22, -45.77, 253.85, -3213.52, 0.000, 0.000, 0.000, 17:38:31.811
132, -383.28, -41.17, 209.45, -3261.77, 0.000, 0.000, 0.000, 17:38:31.811
133, -412.66, -61.69, 219.09, -3167.76, 0.000, 0.000, 0.000, 17:38:31.826
134, -442.29, -67.24, 266.08, -3135.76, 0.000, 0.000, 0.000, 17:38:31.826
135, -406.70, -50.02, 246.49, -3181.06, 0.000, 0.000, 0.000, 17:38:31.841
136, -374.30, -38.88, 218.90, -3270.27, 0.000, 0.000, 0.000, 17:38:31.841
137, -410.30, -58.77, 216.48, -3184.34, 0.000, 0.000, 0.000, 17:38:31.841
138, -443.11, -68.88, 233.21, -3096.39, 0.000, 0.000, 0.000, 17:38:31.841
139, -416.45, -58.00, 235.81, -3219.89, 0.000, 0.000, 0.000, 17:38:31.856
140, -389.13, -50.74, 221.11, -3358.26, 0.000, 0.000, 0.000, 17:38:31.856
141, -413.46, -65.49, 216.59, -3183.80, 0.000, 0.000, 0.000, 17:38:31.871
142, -440.83, -65.45, 253.47, -3091.35, 0.000, 0.000, 0.000, 17:38:31.871
143, -412.32, -53.14, 264.44, -3220.48, 0.000, 0.000, 0.000, 17:38:31.871
144, -377.95, -40.32, 212.66, -3254.36, 0.000, 0.000, 0.000, 17:38:31.871
145, -418.20, -60.14, 206.64, -3217.51, 0.000, 0.000, 0.000, 17:38:31.901
146, -463.30, -74.33, 233.17, -3193.53, 0.000, 0.000, 0.000, 17:38:31.901
147, -417.20, -51.00, 244.48, -3210.42, 0.000, 0.000, 0.000, 17:38:31.901
148, -382.21, -40.28, 223.52, -3315.41, 0.000, 0.000, 0.000, 17:38:31.901
149, -412.90, -58.97, 209.21, -3217.49, 0.000, 0.000, 0.000, 17:38:31.902
150, -451.70, -74.66, 231.46, -3135.19, 0.000, 0.000, 0.000, 17:38:31.902
151, -422.48, -53.78, 242.17, -3233.68, 0.000, 0.000, 0.000, 17:38:31.916
152, -393.65, -50.78, 223.81, -3376.54, 0.000, 0.000, 0.000, 17:38:31.916
153, -411.71, -56.10, 210.47, -3165.95, 0.000, 0.000, 0.000, 17:38:31.930
154, -448.46, -71.13, 224.15, -3139.29, 0.000, 0.000, 0.000, 17:38:31.931
155, -430.79, -65.24, 238.18, -3267.30, 0.000, 0.000, 0.000, 17:38:31.931
156, -381.05, -44.08, 216.34, -3277.48, 0.000, 0.000, 0.000, 17:38:31.931
157, -421.19, -63.11, 198.05, -3220.21, 0.000, 0.000, 0.000, 17:38:31.946
158, -453.57, -72.90, 243.41, -3188.41, 0.000, 0.000, 0.000, 17:38:31.946
159, -420.24, -56.08, 248.44, -3187.13, 0.000, 0.000, 0.000, 17:38:31.961
160, -390.80, -44.62, 208.80, -3279.89, 0.000, 0.000, 0.000, 17:38:31.961
161, -420.33, -56.16, 219.15, -3248.75, 0.000, 0.000, 0.000, 17:38:31.961
162, -453.69, -71.78, 237.69, -3106.99, 0.000, 0.000, 0.000, 17:38:31.961
163, -419.66, -55.33, 249.97, -3198.14, 0.000, 0.000, 0.000, 17:38:31.976
164, -394.82, -45.73, 226.44, -3355.14, 0.000, 0.000, 0.000, 17:38:31.976
165, -423.44, -65.54, 220.44, -3169.54, 0.000, 0.000, 0.000, 17:38:32.006
166, -454.25, -74.88, 239.05, -3108.45, 0.000, 0.000, 0.000, 17:38:32.006
167, -425.16, -60.21, 238.65, -3206.38, 0.000, 0.000, 0.000, 17:38:32.006
168, -384.14, -44.51, 211.23, -3259.13, 0.000, 0.000, 0.000, 17:38:32.006
169, -420.67, -62.90, 218.34, -3211.27, 0.000, 0.000, 0.000, 17:38:32.007
170, -456.84, -74.28, 248.86, -3154.94, 0.000, 0.000, 0.000, 17:38:32.007
171, -424.00, -61.97, 230.19, -3174.26, 0.000, 0.000, 0.000, 17:38:32.008
172, -395.53, -52.88, 209.58, -3293.08, 0.000, 0.000, 0.000, 17:38:32.008
173, -437.33, -71.91, 233.81, -3365.72, 0.000, 0.000, 0.000, 17:38:32.021
174, -450.68, -76.83, 230.50, -3076.92, 0.000, 0.000, 0.000, 17:38:32.021
175, -419.04, -60.27, 256.43, -3205.57, 0.000, 0.000, 0.000, 17:38:32.036
176, -400.48, -62.54, 210.31, -3368.53, 0.000, 0.000, 0.000, 17:38:32.036
177, -427.80, -75.80, 198.54, -3210.52, 0.000, 0.000, 0.000, 17:38:32.051
178, -462.16, -85.03, 230.30, -3169.92, 0.000, 0.000, 0.000, 17:38:32.051
179, -431.40, -63.74, 240.72, -3235.36, 0.000, 0.000, 0.000, 17:38:32.051
180, -384.33, -49.35, 224.96, -3275.11, 0.000, 0.000, 0.000, 17:38:32.051
181, -419.38, -71.26, 209.87, -3208.45, 0.000, 0.000, 0.000, 17:38:32.066
182, -461.43, -77.83, 244.15, -3165.46, 0.000, 0.000, 0.000, 17:38:32.066
183, -428.16, -60.34, 236.53, -3192.69, 0.000, 0.000, 0.000, 17:38:32.080
184, -392.71, -55.79, 209.69, -3321.24, 0.000, 0.000, 0.000, 17:38:32.081
185, -431.66, -69.77, 209.79, -3249.87, 0.000, 0.000, 0.000, 17:38:32.081
186, -456.19, -76.19, 230.91, -3138.22, 0.000, 0.000, 0.000, 17:38:32.081
187, -419.50, -52.10, 240.37, -3198.15, 0.000, 0.000, 0.000, 17:38:32.096
188, -400.10, -50.87, 222.58, -3362.88, 0.000, 0.000, 0.000, 17:38:32.096
189, -413.35, -58.65, 206.58, -3178.22, 0.000, 0.000, 0.000, 17:38:32.110
190, -446.85, -68.26, 232.12, -3123.71, 0.000, 0.000, 0.000, 17:38:32.111
191, -416.39, -54.10, 246.15, -3228.69, 0.000, 0.000, 0.000, 17:38:32.111
192, -377.19, -41.34, 220.70, -3279.00, 0.000, 0.000, 0.000, 17:38:32.111
193, -415.67, -60.38, 219.09, -3236.44, 0.000, 0.000, 0.000, 17:38:32.126
194, -448.90, -63.24, 258.95, -3171.54, 0.000, 0.000, 0.000, 17:38:32.130
195, -420.53, -48.24, 238.27, -3219.96, 0.000, 0.000, 0.000, 17:38:32.140
196, -384.20, -37.27, 220.46, -3294.13, 0.000, 0.000, 0.000, 17:38:32.141
197, -414.12, -58.42, 220.04, -3204.94, 0.000, 0.000, 0.000, 17:38:32.141
198, -440.61, -69.38, 236.74, -3059.98, 0.000, 0.000, 0.000, 17:38:32.141
199, -411.55, -52.05, 242.89, -3202.83, 0.000, 0.000, 0.000, 17:38:32.155
200, -385.78, -41.99, 217.59, -3350.63, 0.000, 0.000, 0.000, 17:38:32.155
0, -409.62, -59.97, 219.05, -3186.70, 0.000, 0.000, 0.000, 17:38:32.156
1, -444.39, -67.49, 242.95, -3093.54, 0.000, 0.000, 0.000, 17:38:32.171
2, -421.78, -57.04, 253.78, -3267.49, 0.000, 0.000, 0.000, 17:38:32.171
3, -384.39, -47.09, 222.22, -3292.87, 0.000, 0.000, 0.000, 17:38:32.185
4, -415.90, -70.96, 220.80, -3208.43, 0.000, 0.000, 0.000, 17:38:32.186
5, -464.03, -85.92, 239.62, -3187.34, 0.000, 0.000, 0.000, 17:38:32.186
6, -423.81, -57.63, 244.48, -3185.42, 0.000, 0.000, 0.000, 17:38:32.186
7, -393.07, -52.40, 214.89, -3289.63, 0.000, 0.000, 0.000, 17:38:32.201
8, -428.59, -73.62, 219.37, -3254.72, 0.000, 0.000, 0.000, 17:38:32.201
9, -456.24, -77.45, 223.38, -3095.86, 0.000, 0.000, 0.000, 17:38:32.215
10, -427.36, -60.77, 232.44, -3223.34, 0.000, 0.000, 0.000, 17:38:32.215
11, -390.05, -51.74, 219.84, -3299.23, 0.000, 0.000, 0.000, 17:38:32.216
12, -413.66, -58.43, 211.79, -3176.04, 0.000, 0.000, 0.000, 17:38:32.216
13, -450.19, -73.78, 231.15, -3123.00, 0.000, 0.000, 0.000, 17:38:32.231
14, -432.23, -63.04, 236.91, -3269.60, 0.000, 0.000, 0.000, 17:38:32.231
15, -387.95, -50.51, 205.98, -3250.34, 0.000, 0.000, 0.000, 17:38:32.245
16, -409.56, -56.58, 214.48, -3192.41, 0.000, 0.000, 0.000, 17:38:32.246
17, -445.97, -72.01, 250.26, -3150.26, 0.000, 0.000, 0.000, 17:38:32.246
18, -416.45, -55.77, 239.00, -3187.79, 0.000, 0.000, 0.000, 17:38:32.246
19, -375.13, -38.00, 222.90, -3274.17, 0.000, 0.000, 0.000, 17:38:32.261
20, -412.53, -59.94, 211.47, -3244.32, 0.000, 0.000, 0.000, 17:38:32.261
21, -434.10, -66.08, 233.56, -3106.08, 0.000, 0.000, 0.000, 17:38:32.276
22, -427.55, -57.03, 237.86, -3238.15, 0.000, 0.000, 0.000, 17:38:32.276
23, -385.39, -43.51, 225.45, -3363.01, 0.000, 0.000, 0.000, 17:38:32.276
24, -412.37, -61.87, 213.86, -3224.57, 0.000, 0.000, 0.000, 17:38:32.276
25, -449.20, -71.30, 225.56, -3148.01, 0.000, 0.000, 0.000, 17:38:32.291
26, -413.84, -48.22, 256.88, -3269.89, 0.000, 0.000, 0.000, 17:38:32.291
27, -372.47, -35.79, 228.56, -3295.99, 0.000, 0.000, 0.000, 17:38:32.321
28, -410.15, -56.68, 221.34, -3221.88, 0.000, 0.000, 0.000, 17:38:32.321
29, -441.48, -64.19, 250.21, -3116.92, 0.000, 0.000, 0.000, 17:38:32.321
30, -409.64, -42.33, 245.01, -3154.50, 0.000, 0.000, 0.000, 17:38:32.321
31, -380.35, -41.24, 224.16, -3258.82, 0.000, 0.000, 0.000, 17:38:32.322
32, -412.94, -55.47, 222.99, -3168.31, 0.000, 0.000, 0.000, 17:38:32.322
33, -449.48, -76.20, 240.11, -3090.43, 0.000, 0.000, 0.000, 17:38:32.322
34, -418.23, -51.48, 258.33, -3196.87, 0.000, 0.000, 0.000, 17:38:32.323
35, -395.51, -42.08, 263.22, -3434.12, 0.000, 0.000, 0.000, 17:38:32.336
36, -409.50, -61.81, 213.49, -3173.45, 0.000, 0.000, 0.000, 17:38:32.336
37, -448.10, -73.31, 239.94, -3107.11, 0.000, 0.000, 0.000, 17:38:32.351
38, -431.26, -55.03, 245.06, -3217.46, 0.000, 0.000, 0.000, 17:38:32.351
39, -381.99, -35.79, 228.43, -3257.45, 0.000, 0.000, 0.000, 17:38:32.366
40, -410.89, -56.51, 219.63, -3207.04, 0.000, 0.000, 0.000, 17:38:32.366
41, -442.78, -59.51, 245.66, -3105.78, 0.000, 0.000, 0.000, 17:38:32.366
42, -410.28, -44.68, 238.26, -3159.33, 0.000, 0.000, 0.000, 17:38:32.366
43, -379.21, -37.91, 216.97, -3270.12, 0.000, 0.000, 0.000, 17:38:32.381
44, -403.95, -50.97, 219.16, -3235.04, 0.000, 0.000, 0.000, 17:38:32.381
45, -431.09, -56.86, 244.53, -3070.73, 0.000, 0.000, 0.000, 17:38:32.395
46, -407.79, -37.60, 254.85, -3144.63, 0.000, 0.000, 0.000, 17:38:32.396
47, -381.03, -37.36, 226.28, -3297.94, 0.000, 0.000, 0.000, 17:38:32.411
48, -412.05, -55.68, 219.97, -3185.25, 0.000, 0.000, 0.000, 17:38:32.411
49, -447.62, -69.18, 234.77, -3133.15, 0.000, 0.000, 0.000, 17:38:32.411
50, -428.60, -55.06, 251.11, -3272.28, 0.000, 0.000, 0.000, 17:38:32.411
51, -386.90, -46.41, 226.95, -3286.92, 0.000, 0.000, 0.000, 17:38:32.426
52, -418.78, -62.49, 220.21, -3222.37, 0.000, 0.000, 0.000, 17:38:32.426
53, -458.85, -75.21, 245.52, -3190.67, 0.000, 0.000, 0.000, 17:38:32.426
54, -413.71, -49.47, 242.22, -3179.06, 0.000, 0.000, 0.000, 17:38:32.426
55, -381.86, -42.30, 221.05, -3266.07, 0.000, 0.000, 0.000, 17:38:32.441
56, -420.64, -59.58, 207.96, -3253.76, 0.000, 0.000, 0.000, 17:38:32.441
57, -448.69, -69.19, 231.05, -3118.88, 0.000, 0.000, 0.000, 17:38:32.456
58, -429.70, -60.20, 234.55, -3193.23, 0.000, 0.000, 0.000, 17:38:32.456
59, -396.84, -49.32, 230.03, -3333.89, 0.000, 0.000, 0.000, 17:38:32.456
60, -406.45, -52.26, 219.17, -3199.08, 0.000, 0.000, 0.000, 17:38:32.456
61, -444.47, -68.99, 241.97, -3147.82, 0.000, 0.000, 0.000, 17:38:32.471
62, -426.29, -56.58, 252.63, -3272.53, 0.000, 0.000, 0.000, 17:38:32.471
63, -374.92, -34.86, 234.02, -3268.89, 0.000, 0.000, 0.000, 17:38:32.486
64, -400.69, -53.01, 226.15, -3218.37, 0.000, 0.000, 0.000, 17:38:32.486
65, -453.27, -68.63, 245.23, -3170.46, 0.000, 0.000, 0.000, 17:38:32.486
66, -412.61, -46.92, 240.50, -3187.00, 0.000, 0.000, 0.000, 17:38:32.486
67, -374.84, -40.30, 221.29, -3308.93, 0.000, 0.000, 0.000, 17:38:32.501
68, -407.97, -56.01, 216.88, -3292.34, 0.000, 0.000, 0.000, 17:38:32.501
69, -440.56, -65.16, 236.29, -3117.51, 0.000, 0.000, 0.000, 17:38:32.516
70, -407.49, -46.86, 256.97, -3207.67, 0.000, 0.000, 0.000, 17:38:32.516
71, -380.21, -44.02, 220.17, -3316.22, 0.000, 0.000, 0.000, 17:38:32.516
72, -394.02, -45.08, 229.48, -3167.90, 0.000, 0.000, 0.000, 17:38:32.516
73, -437.16, -57.17, 240.90, -3123.79, 0.000, 0.000, 0.000, 17:38:32.531
74, -414.02, -49.87, 238.92, -3266.85, 0.000, 0.000, 0.000, 17:38:32.531
75, -371.91, -38.00, 211.23, -3304.77, 0.000, 0.000, 0.000, 17:38:32.546
76, -389.05, -47.41, 215.75, -3229.64, 0.000, 0.000, 0.000, 17:38:32.546
77, -433.91, -65.78, 238.13, -3204.58, 0.000, 0.000, 0.000, 17:38:32.546
78, -412.54, -49.53, 249.48, -3201.54, 0.000, 0.000, 0.000, 17:38:32.546
79, -375.38, -39.33, 225.66, -3309.81, 0.000, 0.000, 0.000, 17:38:32.561
80, -411.24, -56.42, 221.56, -3261.88, 0.000, 0.000, 0.000, 17:38:32.561
81, -436.66, -58.93, 240.97, -3069.37, 0.000, 0.000, 0.000, 17:38:32.576
82, -414.45, -51.60, 238.10, -3197.41, 0.000, 0.000, 0.000, 17:38:32.576
83, -362.59, -28.11, 238.53, -3294.96, 0.000, 0.000, 0.000, 17:38:32.576
84, -390.20, -45.43, 212.74, -3210.47, 0.000, 0.000, 0.000, 17:38:32.576
85, -444.28, -70.42, 230.13, -3134.37, 0.000, 0.000, 0.000, 17:38:32.591
86, -413.71, -45.09, 248.36, -3257.72, 0.000, 0.000, 0.000, 17:38:32.591
87, -363.48, -27.71, 226.59, -3283.48, 0.000, 0.000, 0.000, 17:38:32.606
88, -387.78, -45.62, 213.81, -3213.69, 0.000, 0.000, 0.000, 17:38:32.606
89, -437.77, -60.24, 245.27, -3158.62, 0.000, 0.000, 0.000, 17:38:32.606
90, -407.77, -38.52, 245.88, -3165.72, 0.000, 0.000, 0.000, 17:38:32.606
91, -362.70, -23.36, 224.18, -3278.87, 0.000, 0.000, 0.000, 17:38:32.621
92, -405.67, -46.83, 211.12, -3260.81, 0.000, 0.000, 0.000, 17:38:32.621
93, -426.22, -52.13, 231.69, -3088.78, 0.000, 0.000, 0.000, 17:38:32.651
94, -409.14, -43.82, 241.77, -3188.69, 0.000, 0.000, 0.000, 17:38:32.651
95, -369.08, -31.46, 223.28, -3309.83, 0.000, 0.000, 0.000, 17:38:32.651
96, -397.63, -49.32, 223.09, -3217.68, 0.000, 0.000, 0.000, 17:38:32.651
97, -431.36, -56.33, 234.12, -3106.34, 0.000, 0.000, 0.000, 17:38:32.652
98, -413.03, -53.36, 253.16, -3191.94, 0.000, 0.000, 0.000, 17:38:32.652
99, -375.38, -39.19, 224.75, -3280.80, 0.000, 0.000, 0.000, 17:38:32.653
100, -401.23, -52.51, 201.37, -3231.86, 0.000, 0.000, 0.000, 17:38:32.653
101, -463.30, -69.51, 253.07, -3310.25, 0.000, 0.000, 0.000, 17:38:32.666
102, -415.92, -53.74, 251.32, -3186.44, 0.000, 0.000, 0.000, 17:38:32.666
103, -382.32, -41.66, 230.20, -3291.64, 0.000, 0.000, 0.000, 17:38:32.681
104, -413.80, -57.31, 217.75, -3251.72, 0.000, 0.000, 0.000, 17:38:32.681
105, -450.04, -75.59, 228.75, -3114.57, 0.000, 0.000, 0.000, 17:38:32.695
106, -412.97, -44.63, 260.73, -3165.40, 0.000, 0.000, 0.000, 17:38:32.695
107, -377.55, -37.77, 226.91, -3295.34, 0.000, 0.000, 0.000, 17:38:32.696
108, -388.85, -45.84, 227.91, -3178.44, 0.000, 0.000, 0.000, 17:38:32.696
109, -437.63, -60.19, 228.78, -3121.25, 0.000, 0.000, 0.000, 17:38:32.711
110, -401.10, -30.14, 258.37, -3231.12, 0.000, 0.000, 0.000, 17:38:32.711
111, -353.72, -13.16, 220.19, -3251.20, 0.000, 0.000, 0.000, 17:38:32.726
112, -362.75, -17.44, 218.96, -3176.73, 0.000, 0.000, 0.000, 17:38:32.726
113, -401.07, -24.38, 247.61, -3124.98, 0.000, 0.000, 0.000, 17:38:32.726
114, -365.05, -4.06, 261.45, -3140.95, 0.000, 0.000, 0.000, 17:38:32.726
115, -323.58, 6.68, 229.90, -3252.18, 0.000, 0.000, 0.000, 17:38:32.741
116, -349.62, -0.17, 228.75, -3237.55, 0.000, 0.000, 0.000, 17:38:32.741
117, -370.52, 2.78, 246.36, -3070.39, 0.000, 0.000, 0.000, 17:38:32.756
118, -363.70, 7.79, 241.36, -3167.41, 0.000, 0.000, 0.000, 17:38:32.756
119, -330.75, 12.78, 217.71, -3291.21, 0.000, 0.000, 0.000, 17:38:32.756
120, -354.80, -5.69, 217.18, -3195.43, 0.000, 0.000, 0.000, 17:38:32.756
121, -401.89, -22.54, 243.37, -3124.43, 0.000, 0.000, 0.000, 17:38:32.771
122, -384.15, -14.18, 266.64, -3237.19, 0.000, 0.000, 0.000, 17:38:32.771
123, -351.93, -9.16, 230.69, -3255.29, 0.000, 0.000, 0.000, 17:38:32.785
124, -364.06, -12.41, 220.23, -3195.76, 0.000, 0.000, 0.000, 17:38:32.786
125, -408.81, -25.65, 246.64, -3137.12, 0.000, 0.000, 0.000, 17:38:32.786
126, -374.34, -6.66, 255.31, -3168.39, 0.000, 0.000, 0.000, 17:38:32.786
127, -340.69, -3.51, 242.77, -3274.10, 0.000, 0.000, 0.000, 17:38:32.801
128, -366.12, -17.65, 237.95, -3259.17, 0.000, 0.000, 0.000, 17:38:32.801
129, -398.67, -19.58, 247.50, -3090.94, 0.000, 0.000, 0.000, 17:38:32.815
130, -372.53, -5.18, 260.64, -3177.16, 0.000, 0.000, 0.000, 17:38:32.815
131, -334.60, 7.72, 240.97, -3297.65, 0.000, 0.000, 0.000, 17:38:32.816
132, -349.53, -1.52, 218.09, -3182.92, 0.000, 0.000, 0.000, 17:38:32.816
133, -390.50, -14.37, 235.91, -3118.03, 0.000, 0.000, 0.000, 17:38:32.831
134, -390.28, -10.90, 247.30, -3268.05, 0.000, 0.000, 0.000, 17:38:32.831
135, -356.75, -8.23, 225.75, -3285.22, 0.000, 0.000, 0.000, 17:38:32.846
136, -374.05, -25.53, 218.98, -3215.60, 0.000, 0.000, 0.000, 17:38:32.846
137, -427.90, -52.28, 236.32, -3152.18, 0.000, 0.000, 0.000, 17:38:32.846
138, -412.50, -49.22, 248.82, -3179.46, 0.000, 0.000, 0.000, 17:38:32.846
139, -380.29, -48.58, 223.39, -3289.88, 0.000, 0.000, 0.000, 17:38:32.861
140, -423.05, -71.05, 215.97, -3284.42, 0.000, 0.000, 0.000, 17:38:32.861
141, -447.80, -76.05, 234.30, -3090.59, 0.000, 0.000, 0.000, 17:38:32.875
142, -440.11, -72.96, 239.75, -3178.94, 0.000, 0.000, 0.000, 17:38:32.875
143, -401.81, -66.24, 219.33, -3278.30, 0.000, 0.000, 0.000, 17:38:32.876
144, -427.11, -85.07, 209.93, -3200.94, 0.000, 0.000, 0.000, 17:38:32.876
145, -469.01, -98.90, 233.73, -3113.80, 0.000, 0.000, 0.000, 17:38:32.891
146, -464.44, -95.22, 248.08, -3265.93, 0.000, 0.000, 0.000, 17:38:32.891
147, -415.73, -81.04, 216.67, -3268.08, 0.000, 0.000, 0.000, 17:38:32.906
148, -442.49, -98.42, 207.47, -3225.72, 0.000, 0.000, 0.000, 17:38:32.906
149, -477.36, -99.80, 245.58, -3134.42, 0.000, 0.000, 0.000, 17:38:32.911
150, -445.23, -82.03, 247.57, -3158.25, 0.000, 0.000, 0.000, 17:38:32.911
151, -405.90, -71.41, 215.63, -3291.19, 0.000, 0.000, 0.000, 17:38:32.921
152, -441.99, -98.27, 217.26, -3298.12, 0.000, 0.000, 0.000, 17:38:32.921
153, -471.78, -96.41, 222.65, -3122.22, 0.000, 0.000, 0.000, 17:38:32.936
154, -453.32, -83.66, 239.49, -3180.85, 0.000, 0.000, 0.000, 17:38:32.936
155, -417.80, -77.26, 220.18, -3300.65, 0.000, 0.000, 0.000, 17:38:32.936
156, -427.78, -84.81, 219.12, -3204.18, 0.000, 0.000, 0.000, 17:38:32.936
157, -466.75, -95.30, 223.67, -3141.98, 0.000, 0.000, 0.000, 17:38:32.966
158, -458.45, -87.79, 230.19, -3249.59, 0.000, 0.000, 0.000, 17:38:32.966
159, -410.62, -74.04, 220.53, -3270.18, 0.000, 0.000, 0.000, 17:38:32.966
160, -434.48, -87.60, 209.90, -3227.51, 0.000, 0.000, 0.000, 17:38:32.966
161, -473.79, -104.29, 229.85, -3114.66, 0.000, 0.000, 0.000, 17:38:32.967
162, -442.45, -82.27, 254.55, -3150.08, 0.000, 0.000, 0.000, 17:38:32.967
163, -407.93, -70.61, 233.08, -3273.91, 0.000, 0.000, 0.000, 17:38:32.981
164, -434.95, -85.52, 234.42, -3316.18, 0.000, 0.000, 0.000, 17:38:32.981
165, -470.13, -100.43, 226.17, -3117.44, 0.000, 0.000, 0.000, 17:38:32.995
166, -443.90, -80.08, 249.01, -3170.31, 0.000, 0.000, 0.000, 17:38:32.996
167, -400.62, -59.54, 229.18, -3306.63, 0.000, 0.000, 0.000, 17:38:32.996
168, -425.03, -75.87, 216.79, -3219.08, 0.000, 0.000, 0.000, 17:38:32.996
169, -456.64, -80.66, 249.77, -3143.71, 0.000, 0.000, 0.000, 17:38:33.011
170, -444.21, -69.31, 254.36, -3240.77, 0.000, 0.000, 0.000, 17:38:33.011
171, -397.97, -53.63, 219.27, -3299.32, 0.000, 0.000, 0.000, 17:38:33.025
172, -419.17, -67.10, 215.79, -3244.01, 0.000, 0.000, 0.000, 17:38:33.025
173, -461.43, -80.59, 257.29, -3162.21, 0.000, 0.000, 0.000, 17:38:33.026
174, -439.89, -72.96, 247.52, -3198.88, 0.000, 0.000, 0.000, 17:38:33.026
175, -398.98, -65.53, 218.65, -3315.48, 0.000, 0.000, 0.000, 17:38:33.041
176, -412.28, -65.13, 219.64, -3287.31, 0.000, 0.000, 0.000, 17:38:33.041
177, -452.55, -75.73, 241.36, -3109.22, 0.000, 0.000, 0.000, 17:38:33.056
178, -426.42, -59.81, 256.34, -3179.86, 0.000, 0.000, 0.000, 17:38:33.056
179, -396.30, -57.42, 227.90, -3290.42, 0.000, 0.000, 0.000, 17:38:33.056
180, -414.96, -65.21, 213.89, -3191.72, 0.000, 0.000, 0.000, 17:38:33.056
181, -443.88, -63.65, 250.10, -3103.25, 0.000, 0.000, 0.000, 17:38:33.071
182, -442.95, -63.18, 258.55, -3248.09, 0.000, 0.000, 0.000, 17:38:33.071
183, -390.31, -48.40, 224.35, -3293.11, 0.000, 0.000, 0.000, 17:38:33.085
184, -413.78, -60.63, 214.15, -3238.82, 0.000, 0.000, 0.000, 17:38:33.085
185, -452.60, -72.70, 243.90, -3136.14, 0.000, 0.000, 0.000, 17:38:33.086
186, -428.08, -64.18, 241.40, -3142.04, 0.000, 0.000, 0.000, 17:38:33.086
187, -391.78, -49.32, 225.93, -3264.98, 0.000, 0.000, 0.000, 17:38:33.101
188, -418.20, -64.87, 212.73, -3304.60, 0.000, 0.000, 0.000, 17:38:33.101
189, -452.04, -73.98, 236.14, -3100.70, 0.000, 0.000, 0.000, 17:38:33.116
190, -424.58, -55.67, 252.28, -3190.55, 0.000, 0.000, 0.000, 17:38:33.116
191, -398.11, -53.46, 218.33, -3332.73, 0.000, 0.000, 0.000, 17:38:33.116
192, -406.89, -58.30, 216.54, -3191.05, 0.000, 0.000, 0.000, 17:38:33.116
193, -448.40, -70.67, 237.79, -3149.99, 0.000, 0.000, 0.000, 17:38:33.131
194, -434.75, -60.55, 254.83, -3245.53, 0.000, 0.000, 0.000, 17:38:33.131
195, -382.92, -45.41, 230.62, -3276.78, 0.000, 0.000, 0.000, 17:38:33.145
196, -404.72, -61.30, 210.27, -3237.78, 0.000, 0.000, 0.000, 17:38:33.146
197, -444.82, -67.30, 233.71, -3191.75, 0.000, 0.000, 0.000, 17:38:33.146
198, -425.79, -57.35, 239.34, -3199.21, 0.000, 0.000, 0.000, 17:38:33.146
199, -386.30, -51.85, 215.94, -3298.51, 0.000, 0.000, 0.000, 17:38:33.161
200, -409.03, -55.18, 225.82, -3246.42, 0.000, 0.000, 0.000, 17:38:33.161
0, -438.42, -62.82, 231.43, -3083.57, 0.000, 0.000, 0.000, 17:38:33.161
1, -419.63, -51.66, 241.78, -3203.45, 0.000, 0.000, 0.000, 17:38:33.176
2, -388.33, -44.19, 225.39, -3338.15, 0.000, 0.000, 0.000, 17:38:33.176
3, -405.32, -58.02, 204.56, -3195.35, 0.000, 0.000, 0.000, 17:38:33.190
4, -446.26, -68.38, 237.58, -3163.84, 0.000, 0.000, 0.000, 17:38:33.191
5, -418.07, -46.68, 259.78, -3209.57, 0.000, 0.000, 0.000, 17:38:33.191
6, -381.04, -37.08, 241.03, -3274.98, 0.000, 0.000, 0.000, 17:38:33.191
7, -392.84, -45.51, 233.67, -3208.68, 0.000, 0.000, 0.000, 17:38:33.206
8, -451.73, -60.97, 237.02, -3188.52, 0.000, 0.000, 0.000, 17:38:33.206
9, -420.81, -45.89, 249.28, -3174.63, 0.000, 0.000, 0.000, 17:38:33.221
10, -382.54, -39.23, 233.92, -3287.71, 0.000, 0.000, 0.000, 17:38:33.221
11, -399.36, -49.87, 225.96, -3226.89, 0.000, 0.000, 0.000, 17:38:33.221
12, -436.34, -62.35, 249.59, -3098.09, 0.000, 0.000, 0.000, 17:38:33.221
13, -424.80, -53.63, 253.97, -3151.97, 0.000, 0.000, 0.000, 17:38:33.236
14, -385.48, -32.81, 243.76, -3285.98, 0.000, 0.000, 0.000, 17:38:33.236
15, -396.02, -49.74, 224.30, -3188.88, 0.000, 0.000, 0.000, 17:38:33.251
16, -439.78, -66.64, 229.74, -3137.43, 0.000, 0.000, 0.000, 17:38:33.256
17, -424.66, -58.20, 249.93, -3196.04, 0.000, 0.000, 0.000, 17:38:33.256
18, -379.93, -45.48, 215.76, -3275.22, 0.000, 0.000, 0.000, 17:38:33.256
19, -391.94, -46.37, 218.03, -3188.12, 0.000, 0.000, 0.000, 17:38:33.281
20, -439.53, -58.63, 252.29, -3139.37, 0.000, 0.000, 0.000, 17:38:33.281
21, -419.59, -51.05, 263.68, -3135.08, 0.000, 0.000, 0.000, 17:38:33.281
22, -384.07, -45.75, 218.25, -3269.42, 0.000, 0.000, 0.000, 17:38:33.281
23, -402.05, -57.41, 212.10, -3217.15, 0.000, 0.000, 0.000, 17:38:33.282
24, -441.84, -69.36, 228.68, -3143.17, 0.000, 0.000, 0.000, 17:38:33.282
25, -425.62, -60.87, 249.35, -3211.74, 0.000, 0.000, 0.000, 17:38:33.296
26, -392.59, -44.07, 251.39, -3381.14, 0.000, 0.000, 0.000, 17:38:33.296
27, -398.93, -51.75, 207.68, -3236.85, 0.000, 0.000, 0.000, 17:38:33.311
28, -441.40, -67.35, 230.92, -3099.42, 0.000, 0.000, 0.000, 17:38:33.311
29, -427.34, -58.39, 250.48, -3227.79, 0.000, 0.000, 0.000, 17:38:33.311
30, -372.86, -39.79, 240.45, -3283.34, 0.000, 0.000, 0.000, 17:38:33.311
31, -399.06, -63.11, 212.86, -3242.96, 0.000, 0.000, 0.000, 17:38:33.326
32, -449.25, -68.33, 254.46, -3193.84, 0.000, 0.000, 0.000, 17:38:33.326
33, -422.38, -53.45, 246.61, -3175.95, 0.000, 0.000, 0.000, 17:38:33.341
34, -388.56, -45.39, 222.63, -3284.73, 0.000, 0.000, 0.000, 17:38:33.341
35, -410.21, -60.45, 222.26, -3257.42, 0.000, 0.000, 0.000, 17:38:33.341
36, -445.11, -72.25, 222.57, -3150.71, 0.000, 0.000, 0.000, 17:38:33.341
37, -429.17, -59.46, 243.62, -3201.17, 0.000, 0.000, 0.000, 17:38:33.356
38, -384.86, -44.08, 236.10, -3341.58, 0.000, 0.000, 0.000, 17:38:33.356
39, -399.61, -58.47, 212.72, -3224.87, 0.000, 0.000, 0.000, 17:38:33.370
40, -438.00, -68.11, 236.74, -3130.22, 0.000, 0.000, 0.000, 17:38:33.371
41, -415.52, -53.20, 261.10, -3176.33, 0.000, 0.000, 0.000, 17:38:33.371
42, -377.83, -37.83, 225.15, -3235.61, 0.000, 0.000, 0.000, 17:38:33.371
43, -401.00, -56.16, 201.52, -3238.16, 0.000, 0.000, 0.000, 17:38:33.386
44, -453.14, -70.62, 233.56, -3192.73, 0.000, 0.000, 0.000, 17:38:33.386
45, -423.49, -53.39, 232.81, -3152.59, 0.000, 0.000, 0.000, 17:38:33.401
46, -373.79, -41.02, 234.97, -3249.38, 0.000, 0.000, 0.000, 17:38:33.401
47, -401.24, -56.52, 214.03, -3250.57, 0.000, 0.000, 0.000, 17:38:33.402
48, -426.59, -60.12, 237.66, -3096.98, 0.000, 0.000, 0.000, 17:38:33.402
49, -419.98, -54.25, 251.23, -3180.06, 0.000, 0.000, 0.000, 17:38:33.416
50, -380.69, -38.27, 234.00, -3328.72, 0.000, 0.000, 0.000, 17:38:33.416
51, -393.10, -48.01, 214.52, -3200.89, 0.000, 0.000, 0.000, 17:38:33.430
52, -437.70, -67.25, 234.16, -3126.71, 0.000, 0.000, 0.000, 17:38:33.431
53, -420.95, -53.86, 251.57, -3194.78, 0.000, 0.000, 0.000, 17:38:33.431
54, -388.39, -44.30, 212.94, -3274.73, 0.000, 0.000, 0.000, 17:38:33.431
55, -401.78, -56.32, 209.87, -3219.43, 0.000, 0.000, 0.000, 17:38:33.446
56, -437.85, -52.59, 254.35, -3160.69, 0.000, 0.000, 0.000, 17:38:33.446
57, -423.71, -55.60, 256.56, -3158.45, 0.000, 0.000, 0.000, 17:38:33.461
58, -381.66, -45.47, 230.10, -3287.83, 0.000, 0.000, 0.000, 17:38:33.461
59, -406.39, -61.31, 220.84, -3250.62, 0.000, 0.000, 0.000, 17:38:33.461
60, -451.87, -75.63, 234.36, -3108.76, 0.000, 0.000, 0.000, 17:38:33.461
61, -435.22, -64.78, 238.40, -3179.21, 0.000, 0.000, 0.000, 17:38:33.476
62, -395.26, -51.09, 232.86, -3341.02, 0.000, 0.000, 0.000, 17:38:33.476
63, -391.65, -56.59, 225.97, -3181.11, 0.000, 0.000, 0.000, 17:38:33.491
64, -439.68, -66.31, 232.25, -3113.64, 0.000, 0.000, 0.000, 17:38:33.491
65, -426.73, -55.95, 257.74, -3178.12, 0.000, 0.000, 0.000, 17:38:33.491
66, -379.77, -46.75, 237.42, -3273.93, 0.000, 0.000, 0.000, 17:38:33.491
67, -406.50, -66.01, 204.64, -3263.85, 0.000, 0.000, 0.000, 17:38:33.506
68, -457.29, -77.57, 242.09, -3183.60, 0.000, 0.000, 0.000, 17:38:33.506
69, -432.28, -62.46, 233.56, -3177.12, 0.000, 0.000, 0.000, 17:38:33.521
70, -385.73, -47.53, 218.04, -3248.36, 0.000, 0.000, 0.000, 17:38:33.521
71, -410.44, -63.18, 213.91, -3262.27, 0.000, 0.000, 0.000, 17:38:33.521
72, -438.60, -64.81, 251.24, -3085.27, 0.000, 0.000, 0.000, 17:38:33.521
73, -428.25, -54.23, 255.43, -3199.42, 0.000, 0.000, 0.000, 17:38:33.536
74, -392.57, -43.29, 238.64, -3328.96, 0.000, 0.000, 0.000, 17:38:33.536
75, -404.74, -63.05, 210.72, -3187.56, 0.000, 0.000, 0.000, 17:38:33.551
76, -441.96, -68.48, 236.37, -3113.20, 0.000, 0.000, 0.000, 17:38:33.551
77, -432.68, -58.22, 247.32, -3182.60, 0.000, 0.000, 0.000, 17:38:33.551
78, -377.12, -42.56, 209.16, -3249.23, 0.000, 0.000, 0.000, 17:38:33.551
79, -394.53, -58.94, 207.13, -3201.85, 0.000, 0.000, 0.000, 17:38:33.566
80, -444.09, -74.27, 241.95, -3165.64, 0.000, 0.000, 0.000, 17:38:33.566
81, -426.15, -64.82, 239.79, -3167.45, 0.000, 0.000, 0.000, 17:38:33.581
82, -382.00, -44.56, 232.00, -3269.05, 0.000, 0.000, 0.000, 17:38:33.581
83, -404.47, -59.97, 209.27, -3226.68, 0.000, 0.000, 0.000, 17:38:33.581
84, -439.82, -68.24, 221.66, -3099.27, 0.000, 0.000, 0.000, 17:38:33.581
85, -425.37, -61.75, 240.38, -3163.51, 0.000, 0.000, 0.000, 17:38:33.610
86, -392.20, -49.57, 230.97, -3330.32, 0.000, 0.000, 0.000, 17:38:33.611
87, -395.84, -49.80, 210.52, -3219.54, 0.000, 0.000, 0.000, 17:38:33.611
88, -442.81, -62.68, 233.60, -3124.46, 0.000, 0.000, 0.000, 17:38:33.611
89, -427.63, -54.81, 246.66, -3168.57, 0.000, 0.000, 0.000, 17:38:33.612
90, -390.34, -43.09, 221.56, -3276.79, 0.000, 0.000, 0.000, 17:38:33.612
91, -397.90, -51.71, 216.39, -3261.76, 0.000, 0.000, 0.000, 17:38:33.626
92, -448.58, -61.09, 239.72, -3257.78, 0.000, 0.000, 0.000, 17:38:33.626
93, -426.08, -52.41, 241.77, -3157.74, 0.000, 0.000, 0.000, 17:38:33.641
94, -383.08, -40.78, 229.01, -3277.29, 0.000, 0.000, 0.000, 17:38:33.641
95, -405.55, -57.14, 218.02, -3236.56, 0.000, 0.000, 0.000, 17:38:33.641
96, -447.11, -77.17, 230.52, -3142.31, 0.000, 0.000, 0.000, 17:38:33.641
97, -430.87, -53.74, 250.82, -3198.00, 0.000, 0.000, 0.000, 17:38:33.656
98, -391.83, -43.87, 234.70, -3326.01, 0.000, 0.000, 0.000, 17:38:33.656
99, -393.39, -47.99, 226.10, -3211.32, 0.000, 0.000, 0.000, 17:38:33.671
100, -440.97, -65.65, 237.70, -3126.72, 0.000, 0.000, 0.000, 17:38:33.671
101, -427.64, -52.16, 242.73, -3184.82, 0.000, 0.000, 0.000, 17:38:33.671
102, -373.56, -30.07, 239.22, -3235.40, 0.000, 0.000, 0.000, 17:38:33.671
103, -391.20, -47.81, 207.34, -3220.12, 0.000, 0.000, 0.000, 17:38:33.686
104, -442.33, -64.78, 244.72, -3158.40, 0.000, 0.000, 0.000, 17:38:33.686
105, -417.14, -43.56, 246.26, -3103.05, 0.000, 0.000, 0.000, 17:38:33.700
106, -375.10, -34.61, 233.59, -3234.44, 0.000, 0.000, 0.000, 17:38:33.700
107, -390.59, -40.45, 222.23, -3251.27, 0.000, 0.000, 0.000, 17:38:33.701
108, -439.71, -61.76, 232.15, -3116.57, 0.000, 0.000, 0.000, 17:38:33.701
109, -422.94, -49.46, 243.05, -3166.27, 0.000, 0.000, 0.000, 17:38:33.716
110, -386.72, -31.48, 246.22, -3348.22, 0.000, 0.000, 0.000, 17:38:33.716
111, -393.87, -49.33, 214.70, -3238.99, 0.000, 0.000, 0.000, 17:38:33.730
112, -438.80, -59.40, 232.86, -3119.24, 0.000, 0.000, 0.000, 17:38:33.731
113, -427.56, -51.11, 248.90, -3171.51, 0.000, 0.000, 0.000, 17:38:33.731
114, -381.26, -44.68, 223.90, -3234.74, 0.000, 0.000, 0.000, 17:38:33.731
115, -401.89, -59.20, 212.16, -3237.76, 0.000, 0.000, 0.000, 17:38:33.746
116, -444.30, -65.32, 236.95, -3184.30, 0.000, 0.000, 0.000, 17:38:33.746
117, -430.25, -59.63, 238.85, -3168.84, 0.000, 0.000, 0.000, 17:38:33.761
118, -391.39, -47.69, 226.19, -3280.79, 0.000, 0.000, 0.000, 17:38:33.761
119, -409.41, -60.53, 217.91, -3269.56, 0.000, 0.000, 0.000, 17:38:33.761
120, -444.50, -67.99, 228.88, -3105.79, 0.000, 0.000, 0.000, 17:38:33.761
121, -434.25, -62.37, 252.01, -3170.61, 0.000, 0.000, 0.000, 17:38:33.776
122, -400.17, -50.47, 231.99, -3355.60, 0.000, 0.000, 0.000, 17:38:33.776
123, -405.00, -58.39, 217.86, -3218.51, 0.000, 0.000, 0.000, 17:38:33.790
124, -449.30, -68.23, 248.80, -3136.09, 0.000, 0.000, 0.000, 17:38:33.791
125, -437.01, -59.65, 247.47, -3191.34, 0.000, 0.000, 0.000, 17:38:33.791
126, -384.22, -45.90, 225.40, -3248.73, 0.000, 0.000, 0.000, 17:38:33.791
127, -397.80, -49.79, 210.29, -3248.96, 0.000, 0.000, 0.000, 17:38:33.806
128, -457.51, -75.35, 236.66, -3225.80, 0.000, 0.000, 0.000, 17:38:33.806
129, -429.99, -57.76, 248.63, -3147.13, 0.000, 0.000, 0.000, 17:38:33.821
130, -380.84, -37.48, 226.03, -3260.89, 0.000, 0.000, 0.000, 17:38:33.821
131, -391.21, -47.82, 225.44, -3272.01, 0.000, 0.000, 0.000, 17:38:33.821
132, -426.85, -54.51, 257.07, -3098.35, 0.000, 0.000, 0.000, 17:38:33.821
133, -422.21, -48.62, 259.20, -3160.62, 0.000, 0.000, 0.000, 17:38:33.836
134, -378.26, -35.44, 247.14, -3302.48, 0.000, 0.000, 0.000, 17:38:33.836
135, -391.76, -48.01, 208.07, -3219.44, 0.000, 0.000, 0.000, 17:38:33.851
136, -436.31, -65.35, 240.74, -3114.64, 0.000, 0.000, 0.000, 17:38:33.851
137, -420.48, -48.85, 261.59, -3177.32, 0.000, 0.000, 0.000, 17:38:33.851
138, -385.51, -47.16, 228.15, -3240.10, 0.000, 0.000, 0.000, 17:38:33.851
139, -392.21, -54.75, 215.75, -3248.71, 0.000, 0.000, 0.000, 17:38:33.866
140, -461.04, -80.47, 232.02, -3208.28, 0.000, 0.000, 0.000, 17:38:33.866
141, -436.87, -65.40, 246.87, -3154.56, 0.000, 0.000, 0.000, 17:38:33.881
142, -387.27, -48.84, 235.72, -3272.59, 0.000, 0.000, 0.000, 17:38:33.881
143, -398.74, -53.53, 224.05, -3230.99, 0.000, 0.000, 0.000, 17:38:33.881
144, -442.38, -68.69, 232.53, -3077.31, 0.000, 0.000, 0.000, 17:38:33.881
145, -436.75, -57.90, 247.54, -3162.91, 0.000, 0.000, 0.000, 17:38:33.896
146, -398.08, -57.27, 212.50, -3283.53, 0.000, 0.000, 0.000, 17:38:33.896
147, -407.84, -68.79, 201.78, -3167.53, 0.000, 0.000, 0.000, 17:38:33.925
148, -451.33, -78.22, 226.13, -3122.53, 0.000, 0.000, 0.000, 17:38:33.925
149, -429.08, -59.02, 252.85, -3152.90, 0.000, 0.000, 0.000, 17:38:33.926
150, -390.27, -48.32, 225.25, -3242.73, 0.000, 0.000, 0.000, 17:38:33.926
151, -399.14, -60.58, 216.50, -3202.97, 0.000, 0.000, 0.000, 17:38:33.927
152, -440.81, -73.15, 237.53, -3109.62, 0.000, 0.000, 0.000, 17:38:33.927
153, -429.22, -60.74, 253.31, -3134.92, 0.000, 0.000, 0.000, 17:38:33.927
154, -383.34, -44.05, 232.98, -3283.53, 0.000, 0.000, 0.000, 17:38:33.928
155, -410.03, -60.87, 237.25, -3369.82, 0.000, 0.000, 0.000, 17:38:33.941
156, -442.33, -73.43, 242.59, -3095.93, 0.000, 0.000, 0.000, 17:38:33.941
157, -428.75, -56.70, 254.84, -3175.46, 0.000, 0.000, 0.000, 17:38:33.956
158, -388.28, -44.80, 242.07, -3294.56, 0.000, 0.000, 0.000, 17:38:33.956
159, -400.80, -56.09, 219.62, -3228.85, 0.000, 0.000, 0.000, 17:38:33.970
160, -443.10, -64.86, 246.72, -3138.88, 0.000, 0.000, 0.000, 17:38:33.970
161, -424.55, -51.02, 256.21, -3164.73, 0.000, 0.000, 0.000, 17:38:33.971
162, -383.24, -41.49, 221.17, -3244.60, 0.000, 0.000, 0.000, 17:38:33.971
163, -390.70, -49.83, 218.58, -3243.83, 0.000, 0.000, 0.000, 17:38:33.986
164, -442.02, -59.60, 250.99, -3185.27, 0.000, 0.000, 0.000, 17:38:33.986
165, -434.26, -54.39, 251.36, -3157.41, 0.000, 0.000, 0.000, 17:38:34.001
166, -378.80, -35.25, 227.53, -3269.65, 0.000, 0.000, 0.000, 17:38:34.001
167, -391.57, -45.00, 215.93, -3264.72, 0.000, 0.000, 0.000, 17:38:34.001
168, -435.34, -60.31, 238.68, -3126.61, 0.000, 0.000, 0.000, 17:38:34.001
169, -420.84, -49.58, 261.76, -3168.34, 0.000, 0.000, 0.000, 17:38:34.016
170, -384.98, -35.98, 244.27, -3318.58, 0.000, 0.000, 0.000, 17:38:34.016
171, -391.17, -49.36, 207.57, -3226.11, 0.000, 0.000, 0.000, 17:38:34.031
172, -439.18, -54.11, 239.92, -3133.42, 0.000, 0.000, 0.000, 17:38:34.031
173, -436.94, -54.74, 249.78, -3194.08, 0.000, 0.000, 0.000, 17:38:34.031
174, -388.09, -39.46, 223.86, -3279.95, 0.000, 0.000, 0.000, 17:38:34.031
175, -392.23, -38.83, 226.24, -3249.52, 0.000, 0.000, 0.000, 17:38:34.046
176, -446.16, -65.79, 253.13, -3215.39, 0.000, 0.000, 0.000, 17:38:34.046
177, -427.05, -56.97, 252.51, -3169.31, 0.000, 0.000, 0.000, 17:38:34.061
178, -387.98, -50.63, 217.30, -3309.30, 0.000, 0.000, 0.000, 17:38:34.061
179, -398.28, -53.80, 216.98, -3269.12, 0.000, 0.000, 0.000, 17:38:34.061
180, -453.14, -81.13, 219.53, -3127.48, 0.000, 0.000, 0.000, 17:38:34.061
181, -425.83, -56.98, 247.20, -3165.53, 0.000, 0.000, 0.000, 17:38:34.076
182, -389.82, -43.26, 240.00, -3314.16, 0.000, 0.000, 0.000, 17:38:34.076
183, -395.00, -52.38, 213.09, -3242.99, 0.000, 0.000, 0.000, 17:38:34.091
184, -437.62, -65.44, 234.08, -3128.13, 0.000, 0.000, 0.000, 17:38:34.091
185, -435.54, -59.90, 251.13, -3156.47, 0.000, 0.000, 0.000, 17:38:34.091
186, -384.26, -49.79, 218.29, -3249.30, 0.000, 0.000, 0.000, 17:38:34.091
187, -397.21, -53.68, 210.84, -3242.66, 0.000, 0.000, 0.000, 17:38:34.106
188, -456.47, -71.79, 231.41, -3202.84, 0.000, 0.000, 0.000, 17:38:34.106
189, -432.96, -58.73, 239.65, -3157.70, 0.000, 0.000, 0.000, 17:38:34.121
190, -389.74, -43.04, 223.03, -3260.31, 0.000, 0.000, 0.000, 17:38:34.121
191, -395.69, -52.98, 226.49, -3233.06, 0.000, 0.000, 0.000, 17:38:34.121
192, -442.33, -67.61, 228.95, -3131.42, 0.000, 0.000, 0.000, 17:38:34.121
193, -437.01, -58.34, 249.28, -3181.14, 0.000, 0.000, 0.000, 17:38:34.136
194, -396.86, -46.53, 235.54, -3331.22, 0.000, 0.000, 0.000, 17:38:34.136
195, -398.33, -57.90, 195.96, -3224.80, 0.000, 0.000, 0.000, 17:38:34.151
196, -442.59, -65.93, 221.44, -3127.97, 0.000, 0.000, 0.000, 17:38:34.151
197, -440.51, -68.21, 235.04, -3170.76, 0.000, 0.000, 0.000, 17:38:34.151
198, -386.25, -41.18, 218.18, -3263.14, 0.000, 0.000, 0.000, 17:38:34.151
199, -402.54, -57.50, 204.96, -3265.11, 0.000, 0.000, 0.000, 17:38:34.165
200, -458.27, -77.11, 226.99, -3236.89, 0.000, 0.000, 0.000, 17:38:34.166
0, -434.15, -61.02, 235.49, -3172.39, 0.000, 0.000, 0.000, 17:38:34.166
1, -397.83, -51.55, 217.25, -3301.99, 0.000, 0.000, 0.000, 17:38:34.181
2, -407.42, -61.24, 217.76, -3314.69, 0.000, 0.000, 0.000, 17:38:34.181
3, -450.64, -78.03, 219.49, -3113.03, 0.000, 0.000, 0.000, 17:38:34.195
4, -446.23, -72.43, 227.10, -3171.24, 0.000, 0.000, 0.000, 17:38:34.196
5, -403.46, -58.28, 216.90, -3293.54, 0.000, 0.000, 0.000, 17:38:34.196
6, -416.77, -71.64, 194.72, -3236.63, 0.000, 0.000, 0.000, 17:38:34.196
7, -456.76, -84.16, 215.29, -3125.57, 0.000, 0.000, 0.000, 17:38:34.211
8, -464.74, -86.09, 228.66, -3238.23, 0.000, 0.000, 0.000, 17:38:34.211
9, -409.19, -68.28, 201.13, -3265.64, 0.000, 0.000, 0.000, 17:38:34.240
10, -416.82, -81.46, 187.44, -3249.01, 0.000, 0.000, 0.000, 17:38:34.241
11, -461.68, -92.07, 206.69, -3139.55, 0.000, 0.000, 0.000, 17:38:34.241
12, -819.11, -451.20, -143.28, -3497.58, 0.000, 0.000, 0.000, 17:38:34.241
13, -1063.38, -721.97, -450.96, -3890.94, 0.000, 0.000, 0.000, 17:38:34.242
14, -1041.95, -693.17, -431.68, -3820.47, 0.000, 0.000, 0.000, 17:38:34.243
15, -1008.79, -627.53, -326.81, -3672.45, 0.000, 0.000, 0.000, 17:38:34.243
16, -939.26, -560.90, -254.05, -3652.13, 0.000, 0.000, 0.000, 17:38:34.243
17, -847.24, -482.99, -191.93, -3843.83, 0.000, 0.000, 0.000, 17:38:34.256
18, -788.43, -439.80, -184.97, -3582.52, 0.000, 0.000, 0.000, 17:38:34.256
19, -794.60, -416.28, -118.97, -3490.73, 0.000, 0.000, 0.000, 17:38:34.271
20, -760.45, -378.92, -71.60, -3525.48, 0.000, 0.000, 0.000, 17:38:34.271
21, -671.98, -324.41, -49.32, -3561.16, 0.000, 0.000, 0.000, 17:38:34.286
22, -643.58, -294.03, -27.22, -3491.14, 0.000, 0.000, 0.000, 17:38:34.286
23, -680.82, -295.49, 2.75, -3369.38, 0.000, 0.000, 0.000, 17:38:34.286
24, -634.55, -260.59, 53.04, -3362.41, 0.000, 0.000, 0.000, 17:38:34.286
25, -564.58, -218.65, 43.15, -3437.03, 0.000, 0.000, 0.000, 17:38:34.301
26, -559.38, -210.00, 43.45, -3474.59, 0.000, 0.000, 0.000, 17:38:34.301
27, -598.58, -210.66, 66.77, -3270.14, 0.000, 0.000, 0.000, 17:38:34.316
28, -572.34, -188.23, 114.34, -3299.58, 0.000, 0.000, 0.000, 17:38:34.316
29, -516.22, -164.57, 115.31, -3415.39, 0.000, 0.000, 0.000, 17:38:34.316
30, -506.34, -159.19, 92.61, -3340.05, 0.000, 0.000, 0.000, 17:38:34.316
31, -541.54, -165.42, 121.52, -3258.64, 0.000, 0.000, 0.000, 17:38:34.331
32, -539.56, -149.38, 159.75, -3325.46, 0.000, 0.000, 0.000, 17:38:34.331
33, -470.10, -121.80, 142.19, -3346.09, 0.000, 0.000, 0.000, 17:38:34.347
34, -472.45, -129.57, 129.38, -3318.84, 0.000, 0.000, 0.000, 17:38:34.347
35, -516.34, -136.74, 162.24, -3232.17, 0.000, 0.000, 0.000, 17:38:34.347
36, -507.86, -129.42, 175.95, -3223.78, 0.000, 0.000, 0.000, 17:38:34.347
37, -445.31, -100.29, 170.01, -3334.29, 0.000, 0.000, 0.000, 17:38:34.362
38, -462.10, -113.23, 155.05, -3358.04, 0.000, 0.000, 0.000, 17:38:34.362
39, -494.55, -117.58, 176.35, -3160.71, 0.000, 0.000, 0.000, 17:38:34.376
40, -478.74, -97.01, 209.65, -3196.55, 0.000, 0.000, 0.000, 17:38:34.376
41, -427.23, -82.17, 187.49, -3322.75, 0.000, 0.000, 0.000, 17:38:34.376
42, -438.36, -90.76, 164.89, -3265.84, 0.000, 0.000, 0.000, 17:38:34.376
43, -481.62, -109.39, 197.21, -3197.14, 0.000, 0.000, 0.000, 17:38:34.391
44, -480.28, -99.72, 219.70, -3261.55, 0.000, 0.000, 0.000, 17:38:34.391
45, -409.83, -69.58, 212.02, -3289.46, 0.000, 0.000, 0.000, 17:38:34.406
46, -421.74, -84.44, 193.49, -3289.98, 0.000, 0.000, 0.000, 17:38:34.406
47, -470.26, -97.52, 213.99, -3181.49, 0.000, 0.000, 0.000, 17:38:34.406
48, -452.55, -85.82, 222.18, -3175.59, 0.000, 0.000, 0.000, 17:38:34.406
49, -400.83, -63.19, 218.70, -3297.31, 0.000, 0.000, 0.000, 17:38:34.421
50, -432.12, -86.88, 188.47, -3330.59, 0.000, 0.000, 0.000, 17:38:34.421
51, -464.96, -85.40, 211.94, -3154.14, 0.000, 0.000, 0.000, 17:38:34.436
52, -459.46, -78.82, 237.62, -3187.97, 0.000, 0.000, 0.000, 17:38:34.436
53, -404.29, -57.39, 222.06, -3305.92, 0.000, 0.000, 0.000, 17:38:34.436
54, -409.14, -71.29, 196.90, -3245.29, 0.000, 0.000, 0.000, 17:38:34.436
55, -474.42, -100.84, 190.77, -3175.22, 0.000, 0.000, 0.000, 17:38:34.451
56, -465.41, -88.63, 229.75, -3246.37, 0.000, 0.000, 0.000, 17:38:34.451
57, -401.17, -61.70, 208.40, -3267.61, 0.000, 0.000, 0.000, 17:38:34.466
58, -408.43, -68.19, 197.03, -3256.68, 0.000, 0.000, 0.000, 17:38:34.466
59, -464.13, -95.18, 194.97, -3168.62, 0.000, 0.000, 0.000, 17:38:34.466
60, -453.90, -83.72, 210.09, -3173.13, 0.000, 0.000, 0.000, 17:38:34.466
61, -404.23, -59.09, 199.91, -3286.90, 0.000, 0.000, 0.000, 17:38:34.481
62, -417.81, -69.33, 199.21, -3307.10, 0.000, 0.000, 0.000, 17:38:34.481
63, -463.20, -91.78, 196.34, -3140.35, 0.000, 0.000, 0.000, 17:38:34.495
64, -451.34, -76.79, 227.06, -3174.98, 0.000, 0.000, 0.000, 17:38:34.496
65, -405.77, -62.74, 226.11, -3323.94, 0.000, 0.000, 0.000, 17:38:34.496
66, -410.70, -77.77, 194.74, -3261.22, 0.000, 0.000, 0.000, 17:38:34.496
67, -462.41, -92.61, 208.84, -3180.41, 0.000, 0.000, 0.000, 17:38:34.512
68, -455.45, -81.82, 244.91, -3245.76, 0.000, 0.000, 0.000, 17:38:34.513
69, -408.77, -71.21, 211.15, -3275.80, 0.000, 0.000, 0.000, 17:38:34.525
70, -418.28, -77.79, 187.53, -3269.68, 0.000, 0.000, 0.000, 17:38:34.526
71, -456.46, -87.11, 215.54, -3141.68, 0.000, 0.000, 0.000, 17:38:34.526
72, -450.20, -77.89, 239.65, -3143.87, 0.000, 0.000, 0.000, 17:38:34.526
73, -402.21, -58.34, 210.18, -3312.45, 0.000, 0.000, 0.000, 17:38:34.541
74, -416.68, -69.01, 205.93, -3312.88, 0.000, 0.000, 0.000, 17:38:34.541
75, -460.11, -89.73, 212.75, -3137.35, 0.000, 0.000, 0.000, 17:38:34.571
76, -443.67, -77.36, 239.16, -3180.85, 0.000, 0.000, 0.000, 17:38:34.571
77, -402.24, -59.95, 225.83, -3297.83, 0.000, 0.000, 0.000, 17:38:34.571
78, -410.48, -75.68, 204.30, -3256.21, 0.000, 0.000, 0.000, 17:38:34.571
79, -451.24, -81.69, 226.94, -3171.97, 0.000, 0.000, 0.000, 17:38:34.572
80, -441.46, -68.24, 248.85, -3157.47, 0.000, 0.000, 0.000, 17:38:34.572
81, -399.04, -50.89, 227.65, -3286.49, 0.000, 0.000, 0.000, 17:38:34.573
82, -410.05, -70.79, 200.60, -3279.46, 0.000, 0.000, 0.000, 17:38:34.573
83, -463.81, -78.99, 251.64, -3328.82, 0.000, 0.000, 0.000, 17:38:34.586
84, -447.34, -72.72, 233.98, -3129.13, 0.000, 0.000, 0.000, 17:38:34.586
85, -390.60, -48.05, 228.90, -3245.60, 0.000, 0.000, 0.000, 17:38:34.601
86, -404.49, -57.67, 209.72, -3266.18, 0.000, 0.000, 0.000, 17:38:34.601
87, -444.38, -73.49, 221.43, -3110.36, 0.000, 0.000, 0.000, 17:38:34.616
88, -442.17, -74.69, 235.44, -3176.02, 0.000, 0.000, 0.000, 17:38:34.616
89, -387.82, -50.94, 234.33, -3294.74, 0.000, 0.000, 0.000, 17:38:34.616
90, -398.73, -61.02, 206.34, -3231.29, 0.000, 0.000, 0.000, 17:38:34.616
91, -447.24, -75.26, 213.87, -3132.99, 0.000, 0.000, 0.000, 17:38:34.631
92, -452.47, -71.34, 246.60, -3211.61, 0.000, 0.000, 0.000, 17:38:34.631
93, -392.26, -49.95, 226.31, -3268.17, 0.000, 0.000, 0.000, 17:38:34.646
94, -402.70, -61.40, 207.34, -3279.33, 0.000, 0.000, 0.000, 17:38:34.646
95, -457.60, -82.89, 219.17, -3195.64, 0.000, 0.000, 0.000, 17:38:34.646
96, -448.08, -74.47, 234.95, -3144.51, 0.000, 0.000, 0.000, 17:38:34.646
97, -391.92, -49.88, 221.82, -3262.21, 0.000, 0.000, 0.000, 17:38:34.661
98, -413.64, -65.56, 210.42, -3308.77, 0.000, 0.000, 0.000, 17:38:34.661
99, -461.07, -89.11, 215.93, -3155.67, 0.000, 0.000, 0.000, 17:38:34.675
100, -460.21, -85.08, 231.47, -3214.15, 0.000, 0.000, 0.000, 17:38:34.675
101, -407.60, -62.06, 221.63, -3317.04, 0.000, 0.000, 0.000, 17:38:34.676
102, -402.57, -65.07, 202.81, -3212.16, 0.000, 0.000, 0.000, 17:38:34.676
103, -456.68, -90.56, 201.95, -3165.76, 0.000, 0.000, 0.000, 17:38:34.691
104, -441.05, -67.71, 243.79, -3218.28, 0.000, 0.000, 0.000, 17:38:34.691
105, -386.60, -46.28, 220.03, -3250.30, 0.000, 0.000, 0.000, 17:38:34.705
106, -396.80, -61.97, 193.23, -3247.34, 0.000, 0.000, 0.000, 17:38:34.706
107, -451.97, -81.14, 219.96, -3157.73, 0.000, 0.000, 0.000, 17:38:34.706
108, -431.10, -65.71, 246.64, -3124.37, 0.000, 0.000, 0.000, 17:38:34.706
109, -383.76, -48.51, 222.57, -3251.41, 0.000, 0.000, 0.000, 17:38:34.721
110, -398.08, -54.69, 211.29, -3328.13, 0.000, 0.000, 0.000, 17:38:34.721
111, -452.20, -76.78, 216.07, -3146.81, 0.000, 0.000, 0.000, 17:38:34.736
112, -446.79, -69.48, 246.35, -3181.69, 0.000, 0.000, 0.000, 17:38:34.736
113, -400.73, -55.08, 226.55, -3273.03, 0.000, 0.000, 0.000, 17:38:34.736
114, -394.63, -52.01, 205.83, -3210.18, 0.000, 0.000, 0.000, 17:38:34.736
115, -443.43, -72.51, 227.88, -3158.66, 0.000, 0.000, 0.000, 17:38:34.751
116, -446.97, -63.57, 253.27, -3223.22, 0.000, 0.000, 0.000, 17:38:34.751
117, -402.27, -58.98, 220.93, -3283.34, 0.000, 0.000, 0.000, 17:38:34.765
118, -399.10, -58.97, 207.01, -3278.06, 0.000, 0.000, 0.000, 17:38:34.766
119, -460.66, -85.24, 228.11, -3192.04, 0.000, 0.000, 0.000, 17:38:34.766
120, -452.88, -78.21, 235.48, -3157.11, 0.000, 0.000, 0.000, 17:38:34.766
121, -401.39, -50.95, 223.04, -3271.59, 0.000, 0.000, 0.000, 17:38:34.781
122, -399.47, -54.67, 220.70, -3305.03, 0.000, 0.000, 0.000, 17:38:34.781
123, -443.17, -75.02, 232.20, -3143.03, 0.000, 0.000, 0.000, 17:38:34.796
124, -447.27, -73.36, 225.72, -3164.26, 0.000, 0.000, 0.000, 17:38:34.796
125, -402.71, -49.83, 219.06, -3300.14, 0.000, 0.000, 0.000, 17:38:34.796
126, -402.95, -59.13, 201.02, -3250.13, 0.000, 0.000, 0.000, 17:38:34.796
127, -450.70, -80.35, 221.48, -3162.90, 0.000, 0.000, 0.000, 17:38:34.811
128, -454.81, -75.02, 239.94, -3236.06, 0.000, 0.000, 0.000, 17:38:34.811
129, -399.13, -56.05, 221.09, -3240.64, 0.000, 0.000, 0.000, 17:38:34.826
130, -403.28, -62.05, 194.89, -3285.59, 0.000, 0.000, 0.000, 17:38:34.826
131, -450.70, -76.46, 218.69, -3138.70, 0.000, 0.000, 0.000, 17:38:34.826
132, -446.31, -67.86, 237.38, -3136.82, 0.000, 0.000, 0.000, 17:38:34.826
133, -394.21, -48.61, 222.13, -3286.35, 0.000, 0.000, 0.000, 17:38:34.841
134, -409.51, -62.31, 194.44, -3326.37, 0.000, 0.000, 0.000, 17:38:34.841
135, -446.59, -73.39, 209.51, -3134.35, 0.000, 0.000, 0.000, 17:38:34.855
136, -446.51, -72.57, 237.91, -3148.66, 0.000, 0.000, 0.000, 17:38:34.855
137, -399.50, -55.00, 218.93, -3262.77, 0.000, 0.000, 0.000, 17:38:34.856
138, -397.22, -61.66, 200.12, -3224.78, 0.000, 0.000, 0.000, 17:38:34.856
139, -446.24, -72.95, 221.14, -3103.98, 0.000, 0.000, 0.000, 17:38:34.886
140, -454.92, -73.77, 243.05, -3185.26, 0.000, 0.000, 0.000, 17:38:34.886
141, -403.56, -56.59, 210.26, -3240.90, 0.000, 0.000, 0.000, 17:38:34.886
142, -396.98, -59.90, 193.13, -3211.04, 0.000, 0.000, 0.000, 17:38:34.886
143, -447.32, -77.39, 212.70, -3097.11, 0.000, 0.000, 0.000, 17:38:34.887
144, -445.07, -71.63, 233.12, -3133.53, 0.000, 0.000, 0.000, 17:38:34.887
145, -389.21, -43.94, 235.58, -3255.06, 0.000, 0.000, 0.000, 17:38:34.901
146, -407.07, -55.91, 229.31, -3346.69, 0.000, 0.000, 0.000, 17:38:34.901
147, -450.78, -81.51, 217.43, -3163.81, 0.000, 0.000, 0.000, 17:38:34.916
148, -448.72, -71.43, 225.52, -3182.16, 0.000, 0.000, 0.000, 17:38:34.916
149, -404.91, -49.66, 225.37, -3319.09, 0.000, 0.000, 0.000, 17:38:34.916
150, -399.30, -57.53, 202.61, -3256.59, 0.000, 0.000, 0.000, 17:38:34.916
151, -448.54, -74.32, 214.63, -3185.18, 0.000, 0.000, 0.000, 17:38:34.931
152, -457.85, -76.53, 237.98, -3255.05, 0.000, 0.000, 0.000, 17:38:34.931
153, -397.07, -48.20, 222.11, -3285.57, 0.000, 0.000, 0.000, 17:38:34.945
154, -393.93, -59.00, 209.25, -3271.66, 0.000, 0.000, 0.000, 17:38:34.946
155, -453.47, -83.88, 203.37, -3180.10, 0.000, 0.000, 0.000, 17:38:34.946
156, -440.75, -69.57, 229.49, -3128.95, 0.000, 0.000, 0.000, 17:38:34.946
157, -393.99, -55.13, 208.46, -3294.33, 0.000, 0.000, 0.000, 17:38:34.961
158, -399.10, -62.01, 201.95, -3324.90, 0.000, 0.000, 0.000, 17:38:34.961
159, -449.92, -78.20, 215.91, -3171.68, 0.000, 0.000, 0.000, 17:38:34.975
160, -448.37, -69.91, 234.69, -3191.24, 0.000, 0.000, 0.000, 17:38:34.976
161, -392.76, -47.05, 220.76, -3287.18, 0.000, 0.000, 0.000, 17:38:34.976
162, -400.48, -61.22, 200.84, -3269.68, 0.000, 0.000, 0.000, 17:38:34.976
163, -451.59, -80.56, 212.68, -3183.96, 0.000, 0.000, 0.000, 17:38:34.991
164, -458.15, -77.58, 234.79, -3239.87, 0.000, 0.000, 0.000, 17:38:34.991
165, -392.64, -51.98, 218.22, -3277.01, 0.000, 0.000, 0.000, 17:38:35.005
166, -383.53, -52.08, 214.92, -3265.01, 0.000, 0.000, 0.000, 17:38:35.005
167, -443.49, -74.01, 236.07, -3172.62, 0.000, 0.000, 0.000, 17:38:35.006
168, -438.28, -68.72, 234.77, -3138.00, 0.000, 0.000, 0.000, 17:38:35.006
169, -393.27, -51.05, 224.07, -3279.07, 0.000, 0.000, 0.000, 17:38:35.021
170, -392.47, -50.62, 223.09, -3313.72, 0.000, 0.000, 0.000, 17:38:35.021
171, -446.21, -77.79, 213.88, -3150.13, 0.000, 0.000, 0.000, 17:38:35.036
172, -442.51, -71.07, 225.60, -3160.43, 0.000, 0.000, 0.000, 17:38:35.036
173, -381.74, -40.12, 241.29, -3254.86, 0.000, 0.000, 0.000, 17:38:35.036
174, -385.51, -47.58, 222.54, -3222.01, 0.000, 0.000, 0.000, 17:38:35.036
175, -437.02, -68.54, 218.22, -3108.32, 0.000, 0.000, 0.000, 17:38:35.051
176, -449.35, -68.31, 240.33, -3221.66, 0.000, 0.000, 0.000, 17:38:35.051
177, -390.75, -48.88, 221.33, -3241.86, 0.000, 0.000, 0.000, 17:38:35.066
178, -394.57, -52.03, 210.34, -3267.44, 0.000, 0.000, 0.000, 17:38:35.066
179, -438.10, -63.38, 222.55, -3147.29, 0.000, 0.000, 0.000, 17:38:35.066
180, -441.38, -64.18, 239.29, -3119.84, 0.000, 0.000, 0.000, 17:38:35.066
181, -387.89, -39.27, 230.30, -3268.89, 0.000, 0.000, 0.000, 17:38:35.081
182, -396.02, -51.72, 212.43, -3300.69, 0.000, 0.000, 0.000, 17:38:35.081
183, -447.56, -75.56, 210.53, -3133.34, 0.000, 0.000, 0.000, 17:38:35.095
184, -446.69, -69.77, 231.86, -3160.14, 0.000, 0.000, 0.000, 17:38:35.096
185, -393.39, -51.43, 229.71, -3279.62, 0.000, 0.000, 0.000, 17:38:35.096
186, -393.76, -55.60, 216.99, -3236.19, 0.000, 0.000, 0.000, 17:38:35.096
187, -447.95, -80.53, 211.21, -3129.31, 0.000, 0.000, 0.000, 17:38:35.111
188, -413.39, -35.62, 270.43, -3181.39, 0.000, 0.000, 0.000, 17:38:35.111
189, -219.12, 120.72, 395.58, -3098.25, 0.000, 0.000, 0.000, 17:38:35.125
190, -152.28, 183.95, 444.27, -3032.44, 0.000, 0.000, 0.000, 17:38:35.125
191, -201.03, 163.77, 465.66, -2934.59, 0.000, 0.000, 0.000, 17:38:35.126
192, -235.33, 136.33, 444.96, -2936.59, 0.000, 0.000, 0.000, 17:38:35.126
193, -206.18, 134.78, 412.14, -3044.73, 0.000, 0.000, 0.000, 17:38:35.141
194, -218.30, 117.56, 389.10, -3143.89, 0.000, 0.000, 0.000, 17:38:35.141
195, -282.57, 81.77, 384.64, -2971.61, 0.000, 0.000, 0.000, 17:38:35.156
196, -298.65, 73.23, 386.32, -3009.23, 0.000, 0.000, 0.000, 17:38:35.156
197, -274.66, 65.68, 354.11, -3178.14, 0.000, 0.000, 0.000, 17:38:35.156
198, -286.04, 46.95, 314.08, -3135.19, 0.000, 0.000, 0.000, 17:38:35.156
199, -357.18, 11.52, 312.15, -3069.48, 0.000, 0.000, 0.000, 17:38:35.171
200, -386.09, -4.41, 316.50, -3153.26, 0.000, 0.000, 0.000, 17:38:35.171
0, -331.20, 9.85, 295.84, -3210.09, 0.000, 0.000, 0.000, 17:38:35.171
1, -345.16, -8.81, 262.79, -3241.79, 0.000, 0.000, 0.000, 17:38:35.201
2, -397.40, -28.93, 277.28, -3167.15, 0.000, 0.000, 0.000, 17:38:35.201
3, -399.01, -28.80, 272.89, -3113.83, 0.000, 0.000, 0.000, 17:38:35.201
4, -374.27, -37.36, 249.60, -3277.67, 0.000, 0.000, 0.000, 17:38:35.201
5, -391.61, -68.39, 205.55, -3264.91, 0.000, 0.000, 0.000, 17:38:35.202
6, -461.98, -98.55, 194.42, -3150.59, 0.000, 0.000, 0.000, 17:38:35.202
7, -460.41, -90.09, 223.47, -3172.72, 0.000, 0.000, 0.000, 17:38:35.216
8, -418.90, -64.39, 222.43, -3340.31, 0.000, 0.000, 0.000, 17:38:35.216
9, -401.84, -66.16, 191.34, -3229.57, 0.000, 0.000, 0.000, 17:38:35.230
10, -448.28, -79.93, 205.60, -3136.17, 0.000, 0.000, 0.000, 17:38:35.231
11, -455.77, -73.67, 233.74, -3163.00, 0.000, 0.000, 0.000, 17:38:35.231
12, -382.85, -35.85, 231.20, -3225.48, 0.000, 0.000, 0.000, 17:38:35.231
13, -368.11, -26.68, 230.75, -3237.97, 0.000, 0.000, 0.000, 17:38:35.246
14, -410.51, -44.62, 257.52, -3165.48, 0.000, 0.000, 0.000, 17:38:35.246
15, -415.09, -50.49, 248.98, -3086.63, 0.000, 0.000, 0.000, 17:38:35.261
16, -391.47, -53.36, 212.46, -3286.15, 0.000, 0.000, 0.000, 17:38:35.261
17, -445.79, -107.72, 145.38, -3315.54, 0.000, 0.000, 0.000, 17:38:35.261
18, -546.21, -179.04, 106.73, -3225.15, 0.000, 0.000, 0.000, 17:38:35.261
19, -569.69, -195.17, 108.93, -3283.50, 0.000, 0.000, 0.000, 17:38:35.276
20, -519.60, -172.53, 119.26, -3464.19, 0.000, 0.000, 0.000, 17:38:35.276
21, -499.85, -161.73, 105.16, -3360.22, 0.000, 0.000, 0.000, 17:38:35.291
22, -538.18, -167.41, 124.42, -3254.80, 0.000, 0.000, 0.000, 17:38:35.291
23, -554.33, -180.66, 136.21, -3274.66, 0.000, 0.000, 0.000, 17:38:35.291
24, -513.62, -167.36, 109.58, -3361.74, 0.000, 0.000, 0.000, 17:38:35.291
25, -538.28, -197.63, 59.49, -3423.31, 0.000, 0.000, 0.000, 17:38:35.306
26, -604.67, -226.65, 72.14, -3369.03, 0.000, 0.000, 0.000, 17:38:35.306
27, -573.78, -200.40, 109.91, -3247.66, 0.000, 0.000, 0.000, 17:38:35.320
28, -515.11, -170.45, 114.09, -3402.97, 0.000, 0.000, 0.000, 17:38:35.321
29, -496.36, -162.06, 115.16, -3386.09, 0.000, 0.000, 0.000, 17:38:35.321
30, -545.93, -173.18, 127.89, -3222.98, 0.000, 0.000, 0.000, 17:38:35.321
31, -539.91, -159.71, 139.57, -3226.94, 0.000, 0.000, 0.000, 17:38:35.336
32, -485.27, -126.78, 151.24, -3379.78, 0.000, 0.000, 0.000, 17:38:35.336
33, -450.08, -116.56, 147.42, -3300.36, 0.000, 0.000, 0.000, 17:38:35.350
34, -505.85, -139.40, 147.13, -3229.61, 0.000, 0.000, 0.000, 17:38:35.351
35, -514.81, -131.61, 179.10, -3239.22, 0.000, 0.000, 0.000, 17:38:35.351
36, -447.96, -100.36, 175.64, -3303.79, 0.000, 0.000, 0.000, 17:38:35.351
37, -434.81, -97.09, 166.52, -3350.37, 0.000, 0.000, 0.000, 17:38:35.366
38, -501.26, -126.02, 175.93, -3285.73, 0.000, 0.000, 0.000, 17:38:35.366
39, -487.85, -111.68, 198.90, -3211.95, 0.000, 0.000, 0.000, 17:38:35.380
40, -437.89, -94.25, 188.38, -3303.91, 0.000, 0.000, 0.000, 17:38:35.381
41, -445.83, -101.79, 167.73, -3341.60, 0.000, 0.000, 0.000, 17:38:35.381
42, -482.92, -112.57, 186.99, -3167.58, 0.000, 0.000, 0.000, 17:38:35.381
43, -474.96, -105.27, 213.37, -3184.98, 0.000, 0.000, 0.000, 17:38:35.396
44, -423.12, -80.91, 218.95, -3342.17, 0.000, 0.000, 0.000, 17:38:35.396
45, -417.23, -85.08, 183.44, -3273.00, 0.000, 0.000, 0.000, 17:38:35.410
46, -460.76, -97.95, 198.80, -3173.90, 0.000, 0.000, 0.000, 17:38:35.411
47, -473.80, -102.55, 208.79, -3199.16, 0.000, 0.000, 0.000, 17:38:35.411
48, -411.56, -65.24, 206.64, -3267.48, 0.000, 0.000, 0.000, 17:38:35.411
49, -405.13, -68.33, 190.43, -3293.71, 0.000, 0.000, 0.000, 17:38:35.426
50, -460.40, -90.47, 202.27, -3261.88, 0.000, 0.000, 0.000, 17:38:35.429
51, -465.49, -91.68, 214.03, -3182.69, 0.000, 0.000, 0.000, 17:38:35.441
52, -405.92, -60.18, 206.28, -3316.71, 0.000, 0.000, 0.000, 17:38:35.441
53, -403.48, -60.55, 202.45, -3327.71, 0.000, 0.000, 0.000, 17:38:35.441
54, -475.74, -109.84, 194.21, -3212.19, 0.000, 0.000, 0.000, 17:38:35.441
55, -450.54, -76.64, 242.03, -3188.61, 0.000, 0.000, 0.000, 17:38:35.456
56, -419.25, -68.89, 212.16, -3353.49, 0.000, 0.000, 0.000, 17:38:35.456
57, -404.15, -62.06, 196.28, -3293.33, 0.000, 0.000, 0.000, 17:38:35.471
58, -461.62, -87.24, 206.91, -3182.76, 0.000, 0.000, 0.000, 17:38:35.471
59, -465.52, -91.20, 217.83, -3205.19, 0.000, 0.000, 0.000, 17:38:35.471
60, -406.13, -63.23, 219.52, -3256.74, 0.000, 0.000, 0.000, 17:38:35.471
61, -405.58, -70.51, 199.65, -3287.60, 0.000, 0.000, 0.000, 17:38:35.486
62, -465.81, -90.53, 209.98, -3253.13, 0.000, 0.000, 0.000, 17:38:35.486
63, -458.87, -86.56, 217.65, -3157.17, 0.000, 0.000, 0.000, 17:38:35.501
64, -407.34, -54.55, 213.00, -3290.01, 0.000, 0.000, 0.000, 17:38:35.501
65, -404.04, -63.49, 193.37, -3314.78, 0.000, 0.000, 0.000, 17:38:35.501
66, -445.50, -77.54, 216.12, -3171.05, 0.000, 0.000, 0.000, 17:38:35.501
67, -451.07, -76.13, 234.68, -3176.90, 0.000, 0.000, 0.000, 17:38:35.531
68, -403.89, -55.15, 221.95, -3309.16, 0.000, 0.000, 0.000, 17:38:35.531
69, -388.09, -57.29, 199.53, -3249.81, 0.000, 0.000, 0.000, 17:38:35.531
70, -447.17, -86.79, 201.84, -3158.52, 0.000, 0.000, 0.000, 17:38:35.531
71, -451.55, -81.35, 223.72, -3118.40, 0.000, 0.000, 0.000, 17:38:35.533
72, -407.20, -66.63, 208.56, -3245.04, 0.000, 0.000, 0.000, 17:38:35.533
73, -389.94, -63.68, 201.95, -3267.80, 0.000, 0.000, 0.000, 17:38:35.546
74, -458.02, -85.57, 224.21, -3256.20, 0.000, 0.000, 0.000, 17:38:35.546
75, -451.49, -81.25, 233.67, -3168.84, 0.000, 0.000, 0.000, 17:38:35.560
76, -401.73, -65.71, 217.00, -3303.00, 0.000, 0.000, 0.000, 17:38:35.561
77, -406.48, -67.24, 203.69, -3303.22, 0.000, 0.000, 0.000, 17:38:35.561
78, -444.98, -80.98, 227.38, -3147.01, 0.000, 0.000, 0.000, 17:38:35.561
79, -456.51, -81.62, 233.51, -3189.47, 0.000, 0.000, 0.000, 17:38:35.576
80, -418.04, -72.74, 218.37, -3352.14, 0.000, 0.000, 0.000, 17:38:35.576
81, -398.35, -65.25, 193.71, -3269.58, 0.000, 0.000, 0.000, 17:38:35.591
82, -456.26, -90.11, 201.30, -3188.97, 0.000, 0.000, 0.000, 17:38:35.591
83, -449.23, -74.24, 238.21, -3166.54, 0.000, 0.000, 0.000, 17:38:35.591
84, -402.81, -60.26, 209.21, -3261.40, 0.000, 0.000, 0.000, 17:38:35.591
85, -394.94, -63.80, 191.87, -3295.55, 0.000, 0.000, 0.000, 17:38:35.606
86, -449.64, -77.77, 219.19, -3227.32, 0.000, 0.000, 0.000, 17:38:35.606
87, -455.30, -80.62, 220.30, -3178.14, 0.000, 0.000, 0.000, 17:38:35.621
88, -404.80, -60.87, 214.21, -3296.97, 0.000, 0.000, 0.000, 17:38:35.621
89, -384.15, -45.74, 220.05, -3303.94, 0.000, 0.000, 0.000, 17:38:35.621
90, -448.53, -80.31, 214.99, -3164.84, 0.000, 0.000, 0.000, 17:38:35.621
91, -460.95, -83.95, 230.47, -3147.38, 0.000, 0.000, 0.000, 17:38:35.636
92, -413.54, -64.15, 226.51, -3313.20, 0.000, 0.000, 0.000, 17:38:35.636
93, -395.06, -59.24, 214.25, -3243.99, 0.000, 0.000, 0.000, 17:38:35.650
94, -449.23, -78.29, 225.70, -3170.53, 0.000, 0.000, 0.000, 17:38:35.651
95, -456.18, -77.00, 238.96, -3173.62, 0.000, 0.000, 0.000, 17:38:35.652
96, -401.78, -57.15, 218.09, -3257.68, 0.000, 0.000, 0.000, 17:38:35.652
97, -399.14, -62.46, 199.66, -3272.57, 0.000, 0.000, 0.000, 17:38:35.666
98, -449.00, -78.02, 232.63, -3223.18, 0.000, 0.000, 0.000, 17:38:35.666
99, -460.17, -80.91, 232.52, -3160.45, 0.000, 0.000, 0.000, 17:38:35.681
100, -408.51, -63.48, 217.06, -3277.34, 0.000, 0.000, 0.000, 17:38:35.681
101, -399.92, -61.10, 207.08, -3292.86, 0.000, 0.000, 0.000, 17:38:35.681
102, -450.81, -83.64, 201.10, -3142.43, 0.000, 0.000, 0.000, 17:38:35.681
103, -461.60, -83.47, 221.99, -3187.12, 0.000, 0.000, 0.000, 17:38:35.696
104, -408.00, -56.78, 234.86, -3303.81, 0.000, 0.000, 0.000, 17:38:35.696
105, -392.19, -60.96, 205.86, -3262.16, 0.000, 0.000, 0.000, 17:38:35.711
106, -451.90, -81.20, 219.60, -3183.93, 0.000, 0.000, 0.000, 17:38:35.711
107, -469.74, -91.34, 234.17, -3186.69, 0.000, 0.000, 0.000, 17:38:35.711
108, -401.54, -62.30, 232.76, -3236.34, 0.000, 0.000, 0.000, 17:38:35.711
109, -390.44, -58.11, 210.75, -3278.04, 0.000, 0.000, 0.000, 17:38:35.726
110, -445.69, -81.50, 224.52, -3215.98, 0.000, 0.000, 0.000, 17:38:35.726
111, -446.94, -77.84, 241.06, -3127.73, 0.000, 0.000, 0.000, 17:38:35.740
112, -406.88, -62.52, 217.76, -3297.81, 0.000, 0.000, 0.000, 17:38:35.741
113, -394.94, -60.76, 204.73, -3294.07, 0.000, 0.000, 0.000, 17:38:35.741
114, -445.92, -82.66, 203.60, -3166.02, 0.000, 0.000, 0.000, 17:38:35.741
115, -452.96, -79.11, 235.90, -3185.24, 0.000, 0.000, 0.000, 17:38:35.756
116, -406.82, -58.26, 232.83, -3332.16, 0.000, 0.000, 0.000, 17:38:35.756
117, -391.27, -61.98, 198.96, -3273.93, 0.000, 0.000, 0.000, 17:38:35.771
118, -451.83, -83.94, 200.29, -3197.92, 0.000, 0.000, 0.000, 17:38:35.771
119, -460.16, -80.92, 223.06, -3195.78, 0.000, 0.000, 0.000, 17:38:35.771
120, -399.96, -54.23, 217.00, -3254.87, 0.000, 0.000, 0.000, 17:38:35.771
121, -387.31, -53.96, 202.47, -3289.24, 0.000, 0.000, 0.000, 17:38:35.786
122, -449.15, -80.62, 217.86, -3222.56, 0.000, 0.000, 0.000, 17:38:35.786
123, -449.07, -72.96, 234.37, -3115.79, 0.000, 0.000, 0.000, 17:38:35.800
124, -399.75, -52.45, 212.55, -3240.88, 0.000, 0.000, 0.000, 17:38:35.800
125, -392.23, -56.82, 201.32, -3238.34, 0.000, 0.000, 0.000, 17:38:35.801
126, -439.00, -77.79, 208.11, -3106.14, 0.000, 0.000, 0.000, 17:38:35.801
127, -450.93, -80.32, 232.89, -3128.57, 0.000, 0.000, 0.000, 17:38:35.816
128, -396.54, -52.51, 231.83, -3253.51, 0.000, 0.000, 0.000, 17:38:35.816
129, -384.20, -51.54, 203.12, -3185.98, 0.000, 0.000, 0.000, 17:38:35.846
130, -436.50, -72.60, 200.34, -3116.97, 0.000, 0.000, 0.000, 17:38:35.846
131, -456.55, -74.81, 228.06, -3133.69, 0.000, 0.000, 0.000, 17:38:35.846
132, -385.74, -39.85, 225.65, -3234.27, 0.000, 0.000, 0.000, 17:38:35.846
133, -386.27, -50.10, 194.83, -3293.32, 0.000, 0.000, 0.000, 17:38:35.847
134, -438.69, -72.61, 208.13, -3177.76, 0.000, 0.000, 0.000, 17:38:35.847
135, -445.60, -71.73, 230.40, -3145.81, 0.000, 0.000, 0.000, 17:38:35.847
136, -400.44, -54.49, 221.86, -3293.46, 0.000, 0.000, 0.000, 17:38:35.847
137, -411.49, -59.84, 221.92, -3452.18, 0.000, 0.000, 0.000, 17:38:35.861
138, -439.31, -79.37, 210.96, -3131.43, 0.000, 0.000, 0.000, 17:38:35.861
139, -448.96, -75.40, 223.20, -3148.62, 0.000, 0.000, 0.000, 17:38:35.876
140, -390.67, -49.98, 222.94, -3256.28, 0.000, 0.000, 0.000, 17:38:35.876
141, -378.65, -51.40, 204.27, -3235.82, 0.000, 0.000, 0.000, 17:38:35.891
142, -440.26, -77.77, 208.14, -3154.13, 0.000, 0.000, 0.000, 17:38:35.891
143, -453.57, -72.49, 231.92, -3147.03, 0.000, 0.000, 0.000, 17:38:35.891
144, -392.83, -48.73, 223.49, -3235.64, 0.000, 0.000, 0.000, 17:38:35.891
145, -385.74, -56.08, 202.74, -3263.21, 0.000, 0.000, 0.000, 17:38:35.906
146, -444.24, -80.44, 218.88, -3211.67, 0.000, 0.000, 0.000, 17:38:35.906
147, -455.20, -78.55, 237.20, -3139.81, 0.000, 0.000, 0.000, 17:38:35.921
148, -402.26, -59.80, 226.20, -3247.19, 0.000, 0.000, 0.000, 17:38:35.921
149, -394.13, -60.12, 207.58, -3282.00, 0.000, 0.000, 0.000, 17:38:35.921
150, -445.53, -81.82, 208.92, -3144.62, 0.000, 0.000, 0.000, 17:38:35.921
151, -457.59, -80.40, 230.61, -3132.55, 0.000, 0.000, 0.000, 17:38:35.937
152, -415.29, -65.44, 228.42, -3316.91, 0.000, 0.000, 0.000, 17:38:35.937
153, -396.64, -61.78, 206.51, -3251.24, 0.000, 0.000, 0.000, 17:38:35.951
154, -447.93, -78.95, 206.14, -3147.19, 0.000, 0.000, 0.000, 17:38:35.951
155, -460.82, -80.09, 234.45, -3117.39, 0.000, 0.000, 0.000, 17:38:35.951
156, -401.44, -54.37, 220.16, -3211.71, 0.000, 0.000, 0.000, 17:38:35.951
157, -390.80, -55.06, 207.74, -3252.85, 0.000, 0.000, 0.000, 17:38:35.966
158, -444.74, -74.80, 221.52, -3198.10, 0.000, 0.000, 0.000, 17:38:35.966
159, -447.55, -72.79, 242.84, -3114.76, 0.000, 0.000, 0.000, 17:38:35.996
160, -400.93, -57.92, 221.98, -3263.63, 0.000, 0.000, 0.000, 17:38:35.996
161, -391.54, -56.30, 199.05, -3287.18, 0.000, 0.000, 0.000, 17:38:35.996
162, -438.81, -80.21, 200.77, -3139.00, 0.000, 0.000, 0.000, 17:38:35.996
163, -439.66, -71.82, 226.77, -3170.20, 0.000, 0.000, 0.000, 17:38:35.997
164, -385.03, -41.68, 223.60, -3245.22, 0.000, 0.000, 0.000, 17:38:35.997
165, -370.97, -44.16, 203.15, -3268.08, 0.000, 0.000, 0.000, 17:38:35.998
166, -407.17, -55.80, 218.19, -3178.50, 0.000, 0.000, 0.000, 17:38:35.998
167, -431.03, -56.62, 243.26, -3322.21, 0.000, 0.000, 0.000, 17:38:36.011
168, -349.14, -23.01, 222.96, -3213.93, 0.000, 0.000, 0.000, 17:38:36.011
169, -332.81, -12.11, 206.04, -3247.24, 0.000, 0.000, 0.000, 17:38:36.026
170, -372.35, -19.52, 215.70, -3157.95, 0.000, 0.000, 0.000, 17:38:36.026
171, -364.47, -6.79, 225.28, -3128.67, 0.000, 0.000, 0.000, 17:38:36.041
172, -314.39, 16.06, 218.00, -3271.32, 0.000, 0.000, 0.000, 17:38:36.041
173, -296.40, 15.80, 209.74, -3296.98, 0.000, 0.000, 0.000, 17:38:36.041
174, -341.17, 5.76, 215.05, -3174.44, 0.000, 0.000, 0.000, 17:38:36.041
175, -336.19, 20.06, 231.32, -3176.61, 0.000, 0.000, 0.000, 17:38:36.056
176, -271.10, 60.25, 234.45, -3327.98, 0.000, 0.000, 0.000, 17:38:36.056
177, -237.41, 64.65, 208.71, -3230.86, 0.000, 0.000, 0.000, 17:38:36.070
178, -290.07, 42.94, 218.15, -3149.30, 0.000, 0.000, 0.000, 17:38:36.070
179, -303.21, 43.01, 236.67, -3158.70, 0.000, 0.000, 0.000, 17:38:36.071
180, -243.56, 76.79, 222.80, -3217.76, 0.000, 0.000, 0.000, 17:38:36.071
181, -229.03, 80.04, 206.89, -3257.92, 0.000, 0.000, 0.000, 17:38:36.086
182, -286.71, 49.89, 215.11, -3207.52, 0.000, 0.000, 0.000, 17:38:36.086
183, -302.41, 42.69, 235.35, -3135.21, 0.000, 0.000, 0.000, 17:38:36.101
184, -254.35, 60.04, 237.30, -3230.10, 0.000, 0.000, 0.000, 17:38:36.101
185, -268.28, 40.21, 216.62, -3259.02, 0.000, 0.000, 0.000, 17:38:36.101
186, -338.83, 5.20, 208.31, -3116.36, 0.000, 0.000, 0.000, 17:38:36.101
187, -372.48, -10.48, 231.90, -3135.65, 0.000, 0.000, 0.000, 17:38:36.116
188, -346.26, -9.51, 223.31, -3355.25, 0.000, 0.000, 0.000, 17:38:36.116
189, -346.87, -24.26, 199.24, -3296.64, 0.000, 0.000, 0.000, 17:38:36.131
190, -418.92, -63.41, 215.51, -3198.71, 0.000, 0.000, 0.000, 17:38:36.131
191, -455.23, -77.40, 228.26, -3168.11, 0.000, 0.000, 0.000, 17:38:36.131
192, -408.61, -64.09, 218.70, -3262.32, 0.000, 0.000, 0.000, 17:38:36.131
193, -405.48, -69.48, 209.61, -3330.37, 0.000, 0.000, 0.000, 17:38:36.160
194, -472.70, -102.05, 219.23, -3241.26, 0.000, 0.000, 0.000, 17:38:36.161
195, -485.75, -108.12, 226.12, -3143.41, 0.000, 0.000, 0.000, 17:38:36.161
196, -447.17, -94.02, 227.34, -3268.16, 0.000, 0.000, 0.000, 17:38:36.161
197, -442.75, -97.62, 213.24, -3281.74, 0.000, 0.000, 0.000, 17:38:36.162
198, -499.03, -122.95, 208.97, -3166.21, 0.000, 0.000, 0.000, 17:38:36.162
199, -518.83, -130.25, 230.52, -3168.79, 0.000, 0.000, 0.000, 17:38:36.175
200, -475.28, -115.67, 236.67, -3332.54, 0.000, 0.000, 0.000, 17:38:36.176
0, -449.16, -110.88, 194.10, -3264.83, 0.000, 0.000, 0.000, 17:38:36.176
1, -503.68, -136.29, 202.46, -3173.63, 0.000, 0.000, 0.000, 17:38:36.191
2, -524.54, -137.21, 231.90, -3201.57, 0.000, 0.000, 0.000, 17:38:36.191
3, -468.79, -116.19, 212.63, -3220.32, 0.000, 0.000, 0.000, 17:38:36.205
4, -453.42, -112.09, 198.36, -3256.41, 0.000, 0.000, 0.000, 17:38:36.205
5, -507.46, -134.61, 205.49, -3184.77, 0.000, 0.000, 0.000, 17:38:36.206
6, -515.59, -128.81, 228.92, -3111.78, 0.000, 0.000, 0.000, 17:38:36.206
7, -459.81, -104.06, 227.19, -3249.93, 0.000, 0.000, 0.000, 17:38:36.221
8, -457.62, -112.79, 204.22, -3351.42, 0.000, 0.000, 0.000, 17:38:36.221
9, -496.02, -122.86, 207.18, -3135.60, 0.000, 0.000, 0.000, 17:38:36.236
10, -512.23, -126.95, 227.70, -3117.21, 0.000, 0.000, 0.000, 17:38:36.236
11, -459.61, -98.79, 220.32, -3268.40, 0.000, 0.000, 0.000, 17:38:36.236
12, -440.59, -98.84, 192.35, -3292.65, 0.000, 0.000, 0.000, 17:38:36.236
13, -491.25, -120.48, 208.28, -3164.53, 0.000, 0.000, 0.000, 17:38:36.251
14, -514.35, -122.53, 228.84, -3182.41, 0.000, 0.000, 0.000, 17:38:36.251
15, -454.58, -91.81, 224.37, -3206.06, 0.000, 0.000, 0.000, 17:38:36.266
16, -445.36, -97.51, 192.46, -3288.27, 0.000, 0.000, 0.000, 17:38:36.266
17, -491.01, -117.16, 206.40, -3154.49, 0.000, 0.000, 0.000, 17:38:36.266
18, -495.43, -108.49, 237.63, -3102.39, 0.000, 0.000, 0.000, 17:38:36.266
19, -450.89, -90.60, 222.71, -3221.59, 0.000, 0.000, 0.000, 17:38:36.281
20, -439.96, -89.66, 212.86, -3302.22, 0.000, 0.000, 0.000, 17:38:36.281
21, -482.48, -110.12, 213.22, -3150.17, 0.000, 0.000, 0.000, 17:38:36.296
22, -496.23, -115.97, 237.50, -3159.48, 0.000, 0.000, 0.000, 17:38:36.296
