%OpenBCI Raw EEG Data
%16.5s
%Sample Rate = 200.0 Hz
%First Column = SampleIndex
%Last Column = Timestamp 
%Other Columns = EEG data in microvolts followed by Accel Data (in G) interleaved with Aux Data
0, -638.67, -345.89, 148.93, -3008.09, 0.000, 0.000, 0.000, 17:28:33.212
1, -655.94, -344.95, 168.99, -2939.16, 0.000, 0.000, 0.000, 17:28:33.227
2, -622.84, -326.67, 186.07, -3058.61, 0.000, 0.000, 0.000, 17:28:33.227
3, -572.65, -310.63, 136.10, -3080.99, 0.000, 0.000, 0.000, 17:28:33.242
4, -604.55, -318.72, 184.68, -3027.45, 0.000, 0.000, 0.000, 17:28:33.242
5, -659.64, -353.40, 163.91, -2984.84, 0.000, 0.000, 0.000, 17:28:33.242
6, -616.23, -324.57, 115.79, -3051.21, 0.000, 0.000, 0.000, 17:28:33.242
7, -572.21, -308.27, 122.62, -3105.41, 0.000, 0.000, 0.000, 17:28:33.257
8, -607.72, -322.82, 145.56, -3071.51, 0.000, 0.000, 0.000, 17:28:33.257
9, -631.21, -323.04, 166.98, -2951.99, 0.000, 0.000, 0.000, 17:28:33.272
10, -605.35, -307.80, 170.28, -3045.18, 0.000, 0.000, 0.000, 17:28:33.272
11, -549.80, -277.05, 182.63, -3052.78, 0.000, 0.000, 0.000, 17:28:33.272
12, -611.89, -326.13, 142.77, -2982.27, 0.000, 0.000, 0.000, 17:28:33.272
13, -613.84, -314.15, 201.08, -2914.16, 0.000, 0.000, 0.000, 17:28:33.287
14, -624.37, -318.55, 191.51, -3054.50, 0.000, 0.000, 0.000, 17:28:33.287
15, -549.38, -280.17, 169.77, -3046.87, 0.000, 0.000, 0.000, 17:28:33.302
16, -609.26, -320.77, 165.95, -3001.22, 0.000, 0.000, 0.000, 17:28:33.302
17, -663.15, -347.73, 133.36, -3005.26, 0.000, 0.000, 0.000, 17:28:33.302
18, -596.38, -309.98, 181.34, -2983.86, 0.000, 0.000, 0.000, 17:28:33.302
19, -568.81, -306.11, 150.89, -3067.91, 0.000, 0.000, 0.000, 17:28:33.317
20, -637.12, -347.06, 134.06, -3048.04, 0.000, 0.000, 0.000, 17:28:33.317
21, -632.42, -332.37, 170.25, -2898.20, 0.000, 0.000, 0.000, 17:28:33.332
22, -609.84, -321.78, 140.20, -3020.92, 0.000, 0.000, 0.000, 17:28:33.332
23, -579.58, -310.08, 144.96, -3063.34, 0.000, 0.000, 0.000, 17:28:33.332
24, -582.75, -305.57, 134.02, -2931.39, 0.000, 0.000, 0.000, 17:28:33.332
25, -646.85, -343.86, 141.07, -2957.93, 0.000, 0.000, 0.000, 17:28:33.347
26, -617.64, -329.79, 168.35, -3068.72, 0.000, 0.000, 0.000, 17:28:33.347
27, -575.00, -311.57, 126.92, -3076.24, 0.000, 0.000, 0.000, 17:28:33.362
28, -611.50, -333.15, 153.42, -2976.23, 0.000, 0.000, 0.000, 17:28:33.362
29, -627.60, -324.73, 166.17, -2952.63, 0.000, 0.000, 0.000, 17:28:33.362
30, -599.26, -313.22, 138.24, -3016.15, 0.000, 0.000, 0.000, 17:28:33.362
31, -575.68, -310.08, 169.82, -3071.57, 0.000, 0.000, 0.000, 17:28:33.377
32, -604.40, -320.88, 146.91, -3033.62, 0.000, 0.000, 0.000, 17:28:33.377
33, -660.08, -357.87, 126.91, -2922.22, 0.000, 0.000, 0.000, 17:28:33.392
34, -605.80, -323.54, 160.13, -3033.82, 0.000, 0.000, 0.000, 17:28:33.392
35, -569.46, -298.09, 141.88, -3090.85, 0.000, 0.000, 0.000, 17:28:33.392
36, -622.82, -334.58, 107.72, -2983.30, 0.000, 0.000, 0.000, 17:28:33.392
37, -647.40, -338.83, 160.72, -2946.31, 0.000, 0.000, 0.000, 17:28:33.407
38, -622.23, -324.51, 162.75, -3068.50, 0.000, 0.000, 0.000, 17:28:33.407
39, -576.17, -305.69, 148.34, -3047.83, 0.000, 0.000, 0.000, 17:28:33.436
40, -594.53, -306.49, 161.31, -2966.48, 0.000, 0.000, 0.000, 17:28:33.436
41, -646.32, -336.33, 156.14, -2939.36, 0.000, 0.000, 0.000, 17:28:33.437
42, -582.52, -296.32, 157.28, -2979.21, 0.000, 0.000, 0.000, 17:28:33.437
43, -585.70, -317.12, 121.27, -3093.27, 0.000, 0.000, 0.000, 17:28:33.438
44, -588.92, -310.77, 162.73, -2992.05, 0.000, 0.000, 0.000, 17:28:33.438
45, -650.02, -347.72, 167.78, -2948.56, 0.000, 0.000, 0.000, 17:28:33.438
46, -601.54, -314.68, 165.09, -3025.39, 0.000, 0.000, 0.000, 17:28:33.439
47, -584.22, -310.71, 145.67, -3189.74, 0.000, 0.000, 0.000, 17:28:33.452
48, -595.14, -321.35, 115.38, -3001.83, 0.000, 0.000, 0.000, 17:28:33.452
49, -652.94, -351.68, 158.45, -2952.15, 0.000, 0.000, 0.000, 17:28:33.467
50, -592.57, -307.45, 192.55, -3003.04, 0.000, 0.000, 0.000, 17:28:33.467
51, -569.53, -306.30, 125.91, -3044.32, 0.000, 0.000, 0.000, 17:28:33.482
52, -609.11, -324.38, 122.54, -2982.84, 0.000, 0.000, 0.000, 17:28:33.482
53, -644.23, -336.44, 159.65, -2950.53, 0.000, 0.000, 0.000, 17:28:33.482
54, -581.92, -300.39, 176.49, -2985.06, 0.000, 0.000, 0.000, 17:28:33.482
55, -573.63, -308.18, 135.44, -3086.91, 0.000, 0.000, 0.000, 17:28:33.497
56, -620.17, -329.15, 140.06, -3044.22, 0.000, 0.000, 0.000, 17:28:33.497
57, -639.63, -333.16, 188.37, -2922.20, 0.000, 0.000, 0.000, 17:28:33.512
58, -592.07, -305.76, 181.46, -3012.17, 0.000, 0.000, 0.000, 17:28:33.513
59, -559.81, -295.14, 132.32, -3108.00, 0.000, 0.000, 0.000, 17:28:33.513
60, -597.89, -315.43, 139.15, -2970.31, 0.000, 0.000, 0.000, 17:28:33.513
61, -640.31, -336.52, 142.66, -2929.53, 0.000, 0.000, 0.000, 17:28:33.527
62, -612.85, -319.03, 171.08, -3043.29, 0.000, 0.000, 0.000, 17:28:33.527
63, -554.85, -289.56, 158.47, -3035.51, 0.000, 0.000, 0.000, 17:28:33.542
64, -593.72, -317.17, 134.60, -2982.05, 0.000, 0.000, 0.000, 17:28:33.542
65, -638.56, -340.80, 156.96, -2975.84, 0.000, 0.000, 0.000, 17:28:33.542
66, -589.23, -306.25, 183.44, -2996.85, 0.000, 0.000, 0.000, 17:28:33.542
67, -568.81, -303.00, 129.25, -3067.59, 0.000, 0.000, 0.000, 17:28:33.557
68, -623.50, -337.12, 131.38, -3046.34, 0.000, 0.000, 0.000, 17:28:33.557
69, -635.06, -332.34, 176.86, -2923.95, 0.000, 0.000, 0.000, 17:28:33.572
70, -582.39, -300.53, 188.10, -2990.21, 0.000, 0.000, 0.000, 17:28:33.572
71, -572.57, -306.56, 125.11, -3111.12, 0.000, 0.000, 0.000, 17:28:33.572
72, -592.42, -311.80, 135.08, -2994.18, 0.000, 0.000, 0.000, 17:28:33.572
73, -653.35, -349.59, 146.65, -2977.34, 0.000, 0.000, 0.000, 17:28:33.587
74, -612.99, -325.50, 180.95, -3075.04, 0.000, 0.000, 0.000, 17:28:33.587
75, -570.78, -315.56, 144.60, -3064.09, 0.000, 0.000, 0.000, 17:28:33.602
76, -595.13, -315.13, 143.13, -2988.02, 0.000, 0.000, 0.000, 17:28:33.602
77, -621.98, -320.90, 172.67, -2969.01, 0.000, 0.000, 0.000, 17:28:33.602
78, -606.93, -316.99, 167.28, -3015.01, 0.000, 0.000, 0.000, 17:28:33.602
79, -548.86, -285.40, 163.38, -3041.90, 0.000, 0.000, 0.000, 17:28:33.617
80, -602.38, -322.83, 144.72, -3020.74, 0.000, 0.000, 0.000, 17:28:33.617
81, -641.47, -341.16, 146.19, -2934.42, 0.000, 0.000, 0.000, 17:28:33.632
82, -600.40, -314.88, 176.02, -3015.60, 0.000, 0.000, 0.000, 17:28:33.632
83, -572.98, -298.73, 117.18, -3114.52, 0.000, 0.000, 0.000, 17:28:33.632
84, -597.38, -317.76, 136.01, -2984.74, 0.000, 0.000, 0.000, 17:28:33.632
85, -643.25, -338.46, 134.22, -2964.34, 0.000, 0.000, 0.000, 17:28:33.647
86, -609.16, -317.87, 156.31, -3061.25, 0.000, 0.000, 0.000, 17:28:33.647
87, -564.24, -297.51, 136.96, -3089.99, 0.000, 0.000, 0.000, 17:28:33.662
88, -607.20, -323.89, 138.62, -2979.72, 0.000, 0.000, 0.000, 17:28:33.662
89, -633.19, -333.51, 147.30, -2945.86, 0.000, 0.000, 0.000, 17:28:33.662
90, -596.14, -317.74, 152.39, -2987.60, 0.000, 0.000, 0.000, 17:28:33.662
91, -562.70, -300.47, 128.71, -3062.13, 0.000, 0.000, 0.000, 17:28:33.677
92, -604.09, -321.47, 137.95, -3024.47, 0.000, 0.000, 0.000, 17:28:33.677
93, -623.71, -327.93, 159.47, -2905.24, 0.000, 0.000, 0.000, 17:28:33.692
94, -593.14, -311.71, 167.01, -2996.14, 0.000, 0.000, 0.000, 17:28:33.694
95, -568.17, -297.05, 141.53, -3095.72, 0.000, 0.000, 0.000, 17:28:33.694
96, -595.26, -313.44, 128.67, -2997.68, 0.000, 0.000, 0.000, 17:28:33.694
97, -637.53, -334.29, 143.72, -2957.77, 0.000, 0.000, 0.000, 17:28:33.707
98, -600.41, -309.24, 157.76, -3053.30, 0.000, 0.000, 0.000, 17:28:33.707
99, -555.22, -295.21, 135.03, -3040.91, 0.000, 0.000, 0.000, 17:28:33.721
100, -588.98, -308.56, 142.00, -2973.89, 0.000, 0.000, 0.000, 17:28:33.722
101, -634.45, -333.05, 134.83, -2977.05, 0.000, 0.000, 0.000, 17:28:33.722
102, -605.80, -317.63, 156.22, -3007.20, 0.000, 0.000, 0.000, 17:28:33.722
103, -564.41, -293.58, 133.96, -3062.94, 0.000, 0.000, 0.000, 17:28:33.737
104, -607.78, -313.08, 148.50, -3077.87, 0.000, 0.000, 0.000, 17:28:33.737
105, -646.56, -337.57, 144.76, -2965.23, 0.000, 0.000, 0.000, 17:28:33.767
106, -598.23, -302.58, 147.85, -3016.84, 0.000, 0.000, 0.000, 17:28:33.767
107, -576.04, -303.17, 125.60, -3110.69, 0.000, 0.000, 0.000, 17:28:33.767
108, -593.67, -309.63, 137.37, -2974.53, 0.000, 0.000, 0.000, 17:28:33.767
109, -625.99, -322.26, 152.68, -2933.52, 0.000, 0.000, 0.000, 17:28:33.782
110, -588.09, -294.34, 162.96, -3008.68, 0.000, 0.000, 0.000, 17:28:33.782
111, -545.17, -275.70, 155.44, -3048.36, 0.000, 0.000, 0.000, 17:28:33.782
112, -587.62, -308.29, 132.39, -2972.71, 0.000, 0.000, 0.000, 17:28:33.782
113, -628.52, -323.31, 169.58, -2991.26, 0.000, 0.000, 0.000, 17:28:33.783
114, -588.96, -307.79, 164.29, -2987.46, 0.000, 0.000, 0.000, 17:28:33.783
115, -551.48, -287.77, 136.61, -3028.45, 0.000, 0.000, 0.000, 17:28:33.797
116, -609.18, -325.15, 140.11, -3087.58, 0.000, 0.000, 0.000, 17:28:33.797
117, -628.90, -326.23, 146.79, -2929.52, 0.000, 0.000, 0.000, 17:28:33.812
118, -587.82, -299.38, 170.90, -2968.84, 0.000, 0.000, 0.000, 17:28:33.812
119, -574.43, -307.63, 126.85, -3086.27, 0.000, 0.000, 0.000, 17:28:33.812
120, -582.56, -306.41, 133.05, -2952.75, 0.000, 0.000, 0.000, 17:28:33.812
121, -622.36, -322.84, 161.45, -2912.22, 0.000, 0.000, 0.000, 17:28:33.827
122, -589.08, -306.09, 161.84, -3046.95, 0.000, 0.000, 0.000, 17:28:33.827
123, -546.59, -291.92, 124.36, -3068.33, 0.000, 0.000, 0.000, 17:28:33.842
124, -591.40, -313.80, 120.89, -2978.35, 0.000, 0.000, 0.000, 17:28:33.842
125, -627.90, -331.94, 152.30, -2955.47, 0.000, 0.000, 0.000, 17:28:33.842
126, -593.71, -307.21, 165.70, -3005.28, 0.000, 0.000, 0.000, 17:28:33.842
127, -557.64, -295.89, 109.96, -3073.21, 0.000, 0.000, 0.000, 17:28:33.857
128, -597.53, -311.22, 137.57, -3036.95, 0.000, 0.000, 0.000, 17:28:33.857
129, -628.43, -326.74, 172.58, -2942.77, 0.000, 0.000, 0.000, 17:28:33.872
130, -595.84, -310.44, 157.95, -3007.50, 0.000, 0.000, 0.000, 17:28:33.872
131, -563.53, -290.76, 136.61, -3108.03, 0.000, 0.000, 0.000, 17:28:33.872
132, -597.39, -310.35, 135.16, -2996.58, 0.000, 0.000, 0.000, 17:28:33.872
133, -632.53, -330.02, 162.00, -2948.44, 0.000, 0.000, 0.000, 17:28:33.887
134, -600.25, -308.98, 176.31, -3038.75, 0.000, 0.000, 0.000, 17:28:33.887
135, -555.93, -292.40, 143.05, -3072.29, 0.000, 0.000, 0.000, 17:28:33.902
136, -593.37, -311.72, 129.58, -2974.35, 0.000, 0.000, 0.000, 17:28:33.902
137, -629.42, -331.22, 147.71, -2964.05, 0.000, 0.000, 0.000, 17:28:33.902
138, -599.27, -308.93, 166.80, -2982.83, 0.000, 0.000, 0.000, 17:28:33.902
139, -558.81, -291.11, 127.61, -3058.18, 0.000, 0.000, 0.000, 17:28:33.917
140, -592.00, -303.40, 130.42, -3035.83, 0.000, 0.000, 0.000, 17:28:33.917
141, -638.40, -337.78, 145.11, -2939.51, 0.000, 0.000, 0.000, 17:28:33.932
142, -592.61, -308.64, 172.51, -3022.37, 0.000, 0.000, 0.000, 17:28:33.932
143, -559.36, -295.64, 142.71, -3086.70, 0.000, 0.000, 0.000, 17:28:33.932
144, -597.71, -316.95, 133.77, -2980.16, 0.000, 0.000, 0.000, 17:28:33.932
145, -633.23, -334.09, 144.10, -2942.71, 0.000, 0.000, 0.000, 17:28:33.947
146, -604.48, -318.31, 156.92, -3062.35, 0.000, 0.000, 0.000, 17:28:33.947
147, -553.28, -292.34, 139.66, -3072.49, 0.000, 0.000, 0.000, 17:28:33.962
148, -595.62, -322.99, 130.93, -2990.59, 0.000, 0.000, 0.000, 17:28:33.962
149, -632.29, -333.09, 167.04, -2972.91, 0.000, 0.000, 0.000, 17:28:33.962
150, -594.32, -311.51, 160.61, -2983.01, 0.000, 0.000, 0.000, 17:28:33.962
151, -559.54, -297.55, 138.34, -3058.46, 0.000, 0.000, 0.000, 17:28:33.977
152, -599.65, -314.53, 147.04, -3022.24, 0.000, 0.000, 0.000, 17:28:33.977
153, -634.21, -334.22, 144.03, -2926.52, 0.000, 0.000, 0.000, 17:28:33.992
154, -589.76, -305.94, 163.37, -2999.07, 0.000, 0.000, 0.000, 17:28:33.992
155, -556.23, -295.59, 133.06, -3084.22, 0.000, 0.000, 0.000, 17:28:33.992
156, -591.72, -315.17, 136.65, -2984.14, 0.000, 0.000, 0.000, 17:28:33.992
157, -635.38, -331.97, 152.98, -2952.30, 0.000, 0.000, 0.000, 17:28:34.007
158, -601.74, -307.21, 168.71, -3052.65, 0.000, 0.000, 0.000, 17:28:34.007
159, -559.06, -289.63, 126.34, -3059.96, 0.000, 0.000, 0.000, 17:28:34.022
160, -587.62, -304.72, 135.57, -2978.40, 0.000, 0.000, 0.000, 17:28:34.022
161, -622.10, -324.62, 155.12, -2950.78, 0.000, 0.000, 0.000, 17:28:34.022
162, -594.57, -314.51, 162.63, -3004.68, 0.000, 0.000, 0.000, 17:28:34.022
163, -552.31, -291.81, 142.88, -3069.60, 0.000, 0.000, 0.000, 17:28:34.037
164, -596.99, -313.55, 125.39, -3034.36, 0.000, 0.000, 0.000, 17:28:34.037
165, -630.45, -328.28, 147.98, -2926.16, 0.000, 0.000, 0.000, 17:28:34.052
166, -587.88, -304.43, 171.79, -2998.78, 0.000, 0.000, 0.000, 17:28:34.052
167, -555.43, -287.81, 148.81, -3073.72, 0.000, 0.000, 0.000, 17:28:34.052
168, -588.64, -309.16, 124.55, -2979.51, 0.000, 0.000, 0.000, 17:28:34.052
169, -620.13, -325.23, 153.20, -2921.86, 0.000, 0.000, 0.000, 17:28:34.082
170, -604.91, -314.45, 160.84, -3072.04, 0.000, 0.000, 0.000, 17:28:34.082
171, -554.33, -290.69, 139.58, -3048.82, 0.000, 0.000, 0.000, 17:28:34.082
172, -587.33, -306.32, 130.69, -2984.66, 0.000, 0.000, 0.000, 17:28:34.082
173, -623.59, -321.40, 156.89, -2919.83, 0.000, 0.000, 0.000, 17:28:34.083
174, -588.23, -305.23, 161.78, -3003.58, 0.000, 0.000, 0.000, 17:28:34.083
175, -558.76, -294.92, 139.84, -3083.03, 0.000, 0.000, 0.000, 17:28:34.097
176, -598.13, -310.40, 148.21, -3081.57, 0.000, 0.000, 0.000, 17:28:34.097
177, -617.10, -314.75, 155.86, -2931.84, 0.000, 0.000, 0.000, 17:28:34.112
178, -587.76, -300.27, 156.61, -3015.57, 0.000, 0.000, 0.000, 17:28:34.112
179, -554.31, -295.56, 138.76, -3095.43, 0.000, 0.000, 0.000, 17:28:34.112
180, -591.47, -315.95, 114.89, -2981.04, 0.000, 0.000, 0.000, 17:28:34.112
181, -622.52, -324.37, 155.65, -2939.50, 0.000, 0.000, 0.000, 17:28:34.127
182, -591.44, -301.27, 188.31, -3041.40, 0.000, 0.000, 0.000, 17:28:34.127
183, -557.45, -290.00, 154.85, -3045.32, 0.000, 0.000, 0.000, 17:28:34.142
184, -595.95, -313.44, 123.87, -2983.77, 0.000, 0.000, 0.000, 17:28:34.142
185, -633.04, -325.92, 155.94, -2955.14, 0.000, 0.000, 0.000, 17:28:34.142
186, -587.06, -295.11, 170.28, -2973.07, 0.000, 0.000, 0.000, 17:28:34.142
187, -539.69, -274.64, 156.72, -3035.63, 0.000, 0.000, 0.000, 17:28:34.157
188, -599.62, -310.98, 130.28, -3037.79, 0.000, 0.000, 0.000, 17:28:34.157
189, -617.25, -319.00, 159.19, -2921.55, 0.000, 0.000, 0.000, 17:28:34.172
190, -583.66, -296.08, 156.41, -2974.66, 0.000, 0.000, 0.000, 17:28:34.172
191, -541.20, -275.95, 137.91, -3063.58, 0.000, 0.000, 0.000, 17:28:34.172
192, -569.99, -294.97, 142.40, -2943.07, 0.000, 0.000, 0.000, 17:28:34.172
193, -616.65, -323.76, 154.42, -2911.72, 0.000, 0.000, 0.000, 17:28:34.187
194, -596.09, -309.38, 163.86, -3050.82, 0.000, 0.000, 0.000, 17:28:34.187
195, -549.64, -286.26, 142.13, -3063.10, 0.000, 0.000, 0.000, 17:28:34.202
196, -582.85, -303.28, 144.77, -2967.58, 0.000, 0.000, 0.000, 17:28:34.205
197, -637.22, -328.60, 157.25, -2966.27, 0.000, 0.000, 0.000, 17:28:34.205
198, -587.23, -299.29, 160.93, -3003.78, 0.000, 0.000, 0.000, 17:28:34.205
199, -548.07, -280.55, 140.89, -3079.44, 0.000, 0.000, 0.000, 17:28:34.217
200, -598.13, -315.83, 145.20, -3018.54, 0.000, 0.000, 0.000, 17:28:34.217
0, -625.32, -323.37, 164.38, -2877.50, 0.000, 0.000, 0.000, 17:28:34.217
1, -592.66, -308.02, 156.97, -2994.30, 0.000, 0.000, 0.000, 17:28:34.232
2, -559.77, -293.57, 144.70, -3082.94, 0.000, 0.000, 0.000, 17:28:34.232
3, -586.15, -308.45, 138.97, -2954.40, 0.000, 0.000, 0.000, 17:28:34.247
4, -627.14, -326.53, 153.89, -2912.60, 0.000, 0.000, 0.000, 17:28:34.247
5, -594.78, -308.49, 149.67, -3011.88, 0.000, 0.000, 0.000, 17:28:34.247
6, -555.23, -287.38, 132.73, -3032.37, 0.000, 0.000, 0.000, 17:28:34.247
7, -590.60, -316.08, 129.81, -2991.57, 0.000, 0.000, 0.000, 17:28:34.262
8, -633.64, -326.25, 163.39, -2953.92, 0.000, 0.000, 0.000, 17:28:34.262
9, -588.32, -301.87, 167.23, -2989.40, 0.000, 0.000, 0.000, 17:28:34.277
10, -554.74, -290.13, 150.52, -3063.68, 0.000, 0.000, 0.000, 17:28:34.277
11, -589.21, -315.39, 131.10, -3014.71, 0.000, 0.000, 0.000, 17:28:34.277
12, -628.11, -330.56, 161.01, -2934.63, 0.000, 0.000, 0.000, 17:28:34.277
13, -588.05, -305.76, 176.35, -2991.35, 0.000, 0.000, 0.000, 17:28:34.292
14, -562.83, -297.85, 143.03, -3106.19, 0.000, 0.000, 0.000, 17:28:34.292
15, -593.59, -312.86, 133.42, -3004.22, 0.000, 0.000, 0.000, 17:28:34.307
16, -619.48, -324.81, 163.33, -2947.05, 0.000, 0.000, 0.000, 17:28:34.307
17, -584.29, -301.15, 185.34, -3048.41, 0.000, 0.000, 0.000, 17:28:34.307
18, -540.60, -283.39, 163.36, -3041.10, 0.000, 0.000, 0.000, 17:28:34.307
19, -584.29, -305.29, 150.16, -2990.86, 0.000, 0.000, 0.000, 17:28:34.322
20, -632.31, -325.62, 180.35, -2990.30, 0.000, 0.000, 0.000, 17:28:34.322
21, -591.18, -305.81, 168.45, -3039.86, 0.000, 0.000, 0.000, 17:28:34.337
22, -545.76, -276.16, 152.68, -3047.01, 0.000, 0.000, 0.000, 17:28:34.337
23, -591.10, -304.15, 144.83, -2992.74, 0.000, 0.000, 0.000, 17:28:34.337
24, -615.55, -317.59, 169.54, -2907.51, 0.000, 0.000, 0.000, 17:28:34.337
25, -583.86, -297.84, 178.51, -2983.15, 0.000, 0.000, 0.000, 17:28:34.352
26, -553.49, -285.12, 160.25, -3077.43, 0.000, 0.000, 0.000, 17:28:34.352
27, -574.79, -301.19, 134.25, -2949.67, 0.000, 0.000, 0.000, 17:28:34.366
28, -622.94, -317.76, 164.82, -2948.40, 0.000, 0.000, 0.000, 17:28:34.367
29, -593.14, -300.21, 168.88, -3037.29, 0.000, 0.000, 0.000, 17:28:34.367
30, -547.81, -279.50, 144.29, -3040.67, 0.000, 0.000, 0.000, 17:28:34.367
31, -580.39, -297.02, 149.78, -2983.13, 0.000, 0.000, 0.000, 17:28:34.397
32, -630.59, -324.63, 175.34, -2952.34, 0.000, 0.000, 0.000, 17:28:34.397
33, -592.22, -300.09, 160.55, -3010.96, 0.000, 0.000, 0.000, 17:28:34.397
34, -553.92, -285.70, 138.26, -3064.26, 0.000, 0.000, 0.000, 17:28:34.397
35, -582.38, -306.00, 143.54, -2988.80, 0.000, 0.000, 0.000, 17:28:34.398
36, -624.87, -325.89, 156.81, -2948.32, 0.000, 0.000, 0.000, 17:28:34.398
37, -594.21, -308.34, 167.92, -3041.13, 0.000, 0.000, 0.000, 17:28:34.412
38, -572.41, -303.69, 160.97, -3161.28, 0.000, 0.000, 0.000, 17:28:34.412
39, -581.26, -306.47, 141.31, -2958.20, 0.000, 0.000, 0.000, 17:28:34.427
40, -629.70, -324.25, 157.01, -2928.64, 0.000, 0.000, 0.000, 17:28:34.427
41, -591.44, -304.00, 173.55, -3019.98, 0.000, 0.000, 0.000, 17:28:34.427
42, -547.78, -283.48, 146.56, -3025.09, 0.000, 0.000, 0.000, 17:28:34.427
43, -585.84, -304.25, 148.70, -2957.97, 0.000, 0.000, 0.000, 17:28:34.442
44, -627.57, -324.82, 171.30, -2963.73, 0.000, 0.000, 0.000, 17:28:34.442
45, -587.87, -303.15, 162.69, -2981.97, 0.000, 0.000, 0.000, 17:28:34.457
46, -561.69, -293.88, 139.32, -3058.34, 0.000, 0.000, 0.000, 17:28:34.457
47, -589.54, -310.60, 151.83, -2997.81, 0.000, 0.000, 0.000, 17:28:34.457
48, -631.87, -327.97, 159.82, -2924.72, 0.000, 0.000, 0.000, 17:28:34.457
49, -591.82, -304.30, 174.69, -3000.75, 0.000, 0.000, 0.000, 17:28:34.472
50, -563.67, -293.87, 150.71, -3115.71, 0.000, 0.000, 0.000, 17:28:34.472
51, -589.83, -309.46, 137.70, -2980.09, 0.000, 0.000, 0.000, 17:28:34.486
52, -612.45, -312.55, 169.98, -2919.11, 0.000, 0.000, 0.000, 17:28:34.487
53, -594.45, -302.10, 176.96, -3020.66, 0.000, 0.000, 0.000, 17:28:34.487
54, -557.94, -290.49, 140.18, -3045.65, 0.000, 0.000, 0.000, 17:28:34.487
55, -586.14, -297.99, 150.32, -2983.54, 0.000, 0.000, 0.000, 17:28:34.502
56, -645.68, -338.99, 159.12, -2985.06, 0.000, 0.000, 0.000, 17:28:34.502
57, -590.33, -303.99, 159.54, -2989.78, 0.000, 0.000, 0.000, 17:28:34.517
58, -556.90, -287.73, 144.10, -3081.73, 0.000, 0.000, 0.000, 17:28:34.517
59, -595.81, -315.19, 143.00, -3040.60, 0.000, 0.000, 0.000, 17:28:34.517
60, -623.80, -324.22, 165.21, -2953.42, 0.000, 0.000, 0.000, 17:28:34.517
61, -587.70, -304.39, 176.60, -3042.03, 0.000, 0.000, 0.000, 17:28:34.532
62, -560.14, -288.15, 147.62, -3120.20, 0.000, 0.000, 0.000, 17:28:34.532
63, -583.51, -302.34, 131.87, -2980.59, 0.000, 0.000, 0.000, 17:28:34.547
64, -613.09, -315.65, 165.09, -2913.94, 0.000, 0.000, 0.000, 17:28:34.547
65, -597.57, -303.33, 157.92, -3028.60, 0.000, 0.000, 0.000, 17:28:34.547
66, -545.97, -281.23, 144.85, -3055.37, 0.000, 0.000, 0.000, 17:28:34.547
67, -582.05, -306.04, 136.92, -2983.66, 0.000, 0.000, 0.000, 17:28:34.562
68, -618.24, -317.78, 180.66, -2973.96, 0.000, 0.000, 0.000, 17:28:34.562
69, -590.63, -306.82, 168.60, -3023.95, 0.000, 0.000, 0.000, 17:28:34.577
70, -560.20, -292.45, 130.33, -3056.40, 0.000, 0.000, 0.000, 17:28:34.577
71, -580.83, -298.57, 149.09, -2995.67, 0.000, 0.000, 0.000, 17:28:34.577
72, -621.35, -317.62, 164.05, -2906.57, 0.000, 0.000, 0.000, 17:28:34.577
73, -591.69, -305.75, 163.53, -3000.50, 0.000, 0.000, 0.000, 17:28:34.592
74, -554.27, -284.83, 151.50, -3107.25, 0.000, 0.000, 0.000, 17:28:34.592
75, -589.25, -308.15, 142.16, -2980.52, 0.000, 0.000, 0.000, 17:28:34.607
76, -625.74, -329.17, 163.01, -2943.21, 0.000, 0.000, 0.000, 17:28:34.607
77, -593.97, -306.81, 178.98, -3041.36, 0.000, 0.000, 0.000, 17:28:34.607
78, -548.19, -280.45, 151.67, -3053.79, 0.000, 0.000, 0.000, 17:28:34.607
79, -590.06, -309.12, 129.20, -3006.97, 0.000, 0.000, 0.000, 17:28:34.622
80, -637.44, -329.12, 164.94, -2991.96, 0.000, 0.000, 0.000, 17:28:34.622
81, -592.60, -311.32, 160.70, -3020.63, 0.000, 0.000, 0.000, 17:28:34.636
82, -555.61, -285.53, 137.70, -3065.92, 0.000, 0.000, 0.000, 17:28:34.637
83, -596.59, -304.76, 131.71, -2979.37, 0.000, 0.000, 0.000, 17:28:34.637
84, -617.37, -310.85, 163.95, -2909.49, 0.000, 0.000, 0.000, 17:28:34.637
85, -585.92, -300.67, 160.88, -2995.48, 0.000, 0.000, 0.000, 17:28:34.652
86, -562.64, -287.29, 150.66, -3078.32, 0.000, 0.000, 0.000, 17:28:34.652
87, -581.15, -301.28, 135.85, -2957.02, 0.000, 0.000, 0.000, 17:28:34.667
88, -616.77, -317.13, 158.36, -2931.44, 0.000, 0.000, 0.000, 17:28:34.667
89, -603.86, -317.38, 160.37, -3058.06, 0.000, 0.000, 0.000, 17:28:34.667
90, -540.25, -277.86, 150.79, -3027.66, 0.000, 0.000, 0.000, 17:28:34.667
91, -575.51, -292.76, 145.75, -2981.68, 0.000, 0.000, 0.000, 17:28:34.682
92, -630.93, -326.40, 164.68, -2982.19, 0.000, 0.000, 0.000, 17:28:34.682
93, -590.27, -299.93, 156.09, -3036.10, 0.000, 0.000, 0.000, 17:28:34.697
94, -558.07, -285.74, 132.27, -3082.87, 0.000, 0.000, 0.000, 17:28:34.697
95, -583.88, -299.57, 145.93, -3018.90, 0.000, 0.000, 0.000, 17:28:34.697
96, -621.19, -314.45, 162.86, -2935.45, 0.000, 0.000, 0.000, 17:28:34.697
97, -587.34, -298.80, 171.76, -3002.74, 0.000, 0.000, 0.000, 17:28:34.727
98, -568.55, -290.22, 150.96, -3096.04, 0.000, 0.000, 0.000, 17:28:34.727
99, -588.88, -304.32, 133.19, -2998.12, 0.000, 0.000, 0.000, 17:28:34.727
100, -622.34, -318.54, 155.58, -2916.26, 0.000, 0.000, 0.000, 17:28:34.727
101, -587.96, -299.13, 169.89, -2975.12, 0.000, 0.000, 0.000, 17:28:34.728
102, -548.27, -285.66, 143.35, -3026.21, 0.000, 0.000, 0.000, 17:28:34.728
103, -581.54, -307.81, 145.03, -2951.95, 0.000, 0.000, 0.000, 17:28:34.742
104, -633.62, -328.92, 177.02, -3017.67, 0.000, 0.000, 0.000, 17:28:34.742
105, -586.06, -295.21, 158.76, -2981.44, 0.000, 0.000, 0.000, 17:28:34.757
106, -553.08, -283.84, 137.48, -3043.25, 0.000, 0.000, 0.000, 17:28:34.757
107, -588.69, -304.88, 144.98, -2994.87, 0.000, 0.000, 0.000, 17:28:34.757
108, -618.86, -317.67, 157.56, -2921.18, 0.000, 0.000, 0.000, 17:28:34.757
109, -586.80, -301.08, 165.92, -2981.92, 0.000, 0.000, 0.000, 17:28:34.772
110, -550.82, -283.22, 158.94, -3078.31, 0.000, 0.000, 0.000, 17:28:34.772
111, -584.92, -309.35, 135.32, -2972.67, 0.000, 0.000, 0.000, 17:28:34.787
112, -627.42, -332.40, 151.25, -2921.75, 0.000, 0.000, 0.000, 17:28:34.787
113, -591.67, -308.11, 172.04, -3051.75, 0.000, 0.000, 0.000, 17:28:34.787
114, -550.10, -285.54, 144.83, -3039.51, 0.000, 0.000, 0.000, 17:28:34.787
115, -589.71, -303.52, 141.06, -3009.32, 0.000, 0.000, 0.000, 17:28:34.802
116, -632.30, -331.47, 171.72, -2984.99, 0.000, 0.000, 0.000, 17:28:34.802
117, -583.40, -298.57, 157.41, -2984.69, 0.000, 0.000, 0.000, 17:28:34.816
118, -543.73, -278.24, 157.75, -3035.04, 0.000, 0.000, 0.000, 17:28:34.817
119, -592.82, -310.25, 154.01, -2972.80, 0.000, 0.000, 0.000, 17:28:34.817
120, -625.31, -325.92, 168.35, -2901.87, 0.000, 0.000, 0.000, 17:28:34.817
121, -591.59, -304.63, 176.99, -2945.42, 0.000, 0.000, 0.000, 17:28:34.832
122, -549.19, -285.21, 150.67, -3094.28, 0.000, 0.000, 0.000, 17:28:34.832
123, -573.38, -294.40, 134.06, -2944.80, 0.000, 0.000, 0.000, 17:28:34.847
124, -605.42, -307.92, 166.96, -2908.45, 0.000, 0.000, 0.000, 17:28:34.847
125, -578.81, -291.85, 164.92, -3035.34, 0.000, 0.000, 0.000, 17:28:34.847
126, -537.80, -277.39, 139.01, -3036.81, 0.000, 0.000, 0.000, 17:28:34.847
127, -572.82, -301.17, 140.36, -2964.63, 0.000, 0.000, 0.000, 17:28:34.862
128, -617.54, -316.66, 164.10, -2985.33, 0.000, 0.000, 0.000, 17:28:34.862
129, -586.04, -303.51, 163.62, -3024.83, 0.000, 0.000, 0.000, 17:28:34.877
130, -542.80, -281.13, 149.43, -3072.87, 0.000, 0.000, 0.000, 17:28:34.877
131, -580.05, -302.63, 135.67, -3006.64, 0.000, 0.000, 0.000, 17:28:34.877
132, -618.80, -322.75, 147.72, -2926.69, 0.000, 0.000, 0.000, 17:28:34.877
133, -581.10, -300.28, 167.20, -2991.54, 0.000, 0.000, 0.000, 17:28:34.892
134, -559.73, -287.69, 147.48, -3124.68, 0.000, 0.000, 0.000, 17:28:34.892
135, -580.28, -301.65, 138.03, -2983.97, 0.000, 0.000, 0.000, 17:28:34.907
136, -616.20, -309.55, 167.01, -2933.49, 0.000, 0.000, 0.000, 17:28:34.907
137, -583.66, -301.58, 173.20, -3016.32, 0.000, 0.000, 0.000, 17:28:34.907
138, -537.70, -269.05, 151.68, -3019.56, 0.000, 0.000, 0.000, 17:28:34.907
139, -572.67, -294.52, 147.50, -2958.75, 0.000, 0.000, 0.000, 17:28:34.922
140, -617.77, -314.96, 167.21, -2959.29, 0.000, 0.000, 0.000, 17:28:34.922
141, -578.79, -300.36, 169.03, -2979.94, 0.000, 0.000, 0.000, 17:28:34.936
142, -546.90, -278.96, 142.53, -3042.26, 0.000, 0.000, 0.000, 17:28:34.937
143, -585.65, -303.81, 140.42, -3016.18, 0.000, 0.000, 0.000, 17:28:34.937
144, -624.65, -322.47, 165.63, -2937.75, 0.000, 0.000, 0.000, 17:28:34.937
145, -588.43, -306.48, 164.07, -3003.21, 0.000, 0.000, 0.000, 17:28:34.952
146, -561.46, -296.73, 147.99, -3102.83, 0.000, 0.000, 0.000, 17:28:34.952
147, -583.23, -304.93, 136.76, -3001.34, 0.000, 0.000, 0.000, 17:28:34.967
148, -619.26, -320.86, 170.80, -2949.39, 0.000, 0.000, 0.000, 17:28:34.967
149, -593.42, -311.23, 177.38, -3067.19, 0.000, 0.000, 0.000, 17:28:34.967
150, -553.13, -289.54, 132.52, -3058.72, 0.000, 0.000, 0.000, 17:28:34.967
151, -594.23, -313.40, 122.56, -2993.91, 0.000, 0.000, 0.000, 17:28:34.982
152, -626.67, -323.99, 168.65, -2969.87, 0.000, 0.000, 0.000, 17:28:34.982
153, -590.52, -304.83, 165.90, -2998.78, 0.000, 0.000, 0.000, 17:28:35.012
154, -552.82, -291.67, 148.08, -3069.93, 0.000, 0.000, 0.000, 17:28:35.012
155, -592.71, -314.06, 144.21, -3012.42, 0.000, 0.000, 0.000, 17:28:35.012
156, -622.70, -322.55, 161.40, -2925.94, 0.000, 0.000, 0.000, 17:28:35.012
157, -584.74, -302.27, 173.46, -3019.57, 0.000, 0.000, 0.000, 17:28:35.013
158, -563.83, -295.11, 143.44, -3111.21, 0.000, 0.000, 0.000, 17:28:35.013
159, -584.62, -307.97, 135.29, -2953.59, 0.000, 0.000, 0.000, 17:28:35.014
160, -621.16, -318.50, 162.05, -2939.02, 0.000, 0.000, 0.000, 17:28:35.014
161, -620.20, -316.85, 182.28, -3146.48, 0.000, 0.000, 0.000, 17:28:35.042
162, -551.51, -282.05, 139.73, -3060.79, 0.000, 0.000, 0.000, 17:28:35.042
163, -593.08, -312.98, 134.39, -2976.23, 0.000, 0.000, 0.000, 17:28:35.042
164, -621.42, -322.79, 156.71, -2919.39, 0.000, 0.000, 0.000, 17:28:35.042
165, -598.02, -309.24, 162.15, -2962.31, 0.000, 0.000, 0.000, 17:28:35.057
166, -553.10, -288.59, 133.61, -3071.36, 0.000, 0.000, 0.000, 17:28:35.057
167, -590.41, -309.22, 145.17, -3017.84, 0.000, 0.000, 0.000, 17:28:35.057
168, -633.59, -328.04, 156.78, -2934.54, 0.000, 0.000, 0.000, 17:28:35.057
169, -601.00, -311.59, 164.34, -3016.29, 0.000, 0.000, 0.000, 17:28:35.072
170, -570.69, -298.61, 143.46, -3135.78, 0.000, 0.000, 0.000, 17:28:35.072
171, -586.96, -303.35, 143.46, -2972.92, 0.000, 0.000, 0.000, 17:28:35.087
172, -614.83, -315.41, 145.18, -2906.95, 0.000, 0.000, 0.000, 17:28:35.087
173, -593.04, -301.39, 162.82, -3033.22, 0.000, 0.000, 0.000, 17:28:35.087
174, -546.33, -288.06, 137.15, -3052.84, 0.000, 0.000, 0.000, 17:28:35.087
175, -586.34, -307.65, 134.46, -3013.28, 0.000, 0.000, 0.000, 17:28:35.102
176, -632.27, -326.94, 165.72, -2973.16, 0.000, 0.000, 0.000, 17:28:35.102
177, -587.42, -300.32, 162.50, -3021.12, 0.000, 0.000, 0.000, 17:28:35.116
178, -548.55, -282.76, 146.15, -3049.39, 0.000, 0.000, 0.000, 17:28:35.117
179, -582.06, -303.95, 144.63, -2994.53, 0.000, 0.000, 0.000, 17:28:35.117
180, -612.46, -315.92, 151.79, -2922.04, 0.000, 0.000, 0.000, 17:28:35.117
181, -590.85, -305.48, 156.47, -3026.30, 0.000, 0.000, 0.000, 17:28:35.132
182, -563.40, -291.77, 149.46, -3116.64, 0.000, 0.000, 0.000, 17:28:35.132
183, -587.27, -301.35, 141.93, -2963.05, 0.000, 0.000, 0.000, 17:28:35.147
184, -623.89, -323.71, 170.76, -2925.38, 0.000, 0.000, 0.000, 17:28:35.147
185, -588.40, -302.99, 164.93, -3019.74, 0.000, 0.000, 0.000, 17:28:35.147
186, -549.07, -282.90, 144.55, -3022.15, 0.000, 0.000, 0.000, 17:28:35.147
187, -586.33, -306.74, 138.30, -2994.85, 0.000, 0.000, 0.000, 17:28:35.162
188, -628.15, -326.58, 165.96, -2965.05, 0.000, 0.000, 0.000, 17:28:35.162
189, -586.43, -301.24, 162.23, -2988.00, 0.000, 0.000, 0.000, 17:28:35.177
190, -544.25, -282.81, 132.52, -3047.90, 0.000, 0.000, 0.000, 17:28:35.177
191, -584.84, -306.06, 130.26, -3024.48, 0.000, 0.000, 0.000, 17:28:35.177
192, -620.89, -318.51, 151.54, -2920.15, 0.000, 0.000, 0.000, 17:28:35.177
193, -582.73, -300.23, 168.14, -2999.64, 0.000, 0.000, 0.000, 17:28:35.192
194, -546.71, -282.47, 153.01, -3067.17, 0.000, 0.000, 0.000, 17:28:35.192
195, -574.22, -303.86, 147.88, -2960.56, 0.000, 0.000, 0.000, 17:28:35.207
196, -620.54, -325.00, 153.26, -2930.52, 0.000, 0.000, 0.000, 17:28:35.207
197, -587.39, -299.31, 168.26, -2997.04, 0.000, 0.000, 0.000, 17:28:35.207
198, -541.84, -280.26, 143.95, -2994.49, 0.000, 0.000, 0.000, 17:28:35.207
199, -580.50, -302.54, 140.24, -2969.80, 0.000, 0.000, 0.000, 17:28:35.222
200, -632.19, -330.29, 169.50, -2971.40, 0.000, 0.000, 0.000, 17:28:35.222
0, -587.17, -303.45, 167.61, -2967.18, 0.000, 0.000, 0.000, 17:28:35.222
1, -551.52, -284.09, 141.89, -3030.36, 0.000, 0.000, 0.000, 17:28:35.238
2, -601.35, -313.09, 144.98, -3027.73, 0.000, 0.000, 0.000, 17:28:35.238
3, -628.49, -325.98, 163.19, -2930.76, 0.000, 0.000, 0.000, 17:28:35.252
4, -594.36, -305.25, 168.91, -2991.12, 0.000, 0.000, 0.000, 17:28:35.252
5, -565.64, -299.35, 132.26, -3067.02, 0.000, 0.000, 0.000, 17:28:35.252
6, -591.87, -315.75, 129.25, -2981.61, 0.000, 0.000, 0.000, 17:28:35.252
7, -619.35, -323.41, 152.65, -2926.40, 0.000, 0.000, 0.000, 17:28:35.267
8, -605.05, -315.12, 160.34, -3035.70, 0.000, 0.000, 0.000, 17:28:35.267
9, -547.50, -283.43, 134.41, -3033.56, 0.000, 0.000, 0.000, 17:28:35.282
10, -583.65, -304.49, 131.58, -2962.27, 0.000, 0.000, 0.000, 17:28:35.282
11, -631.89, -332.24, 152.76, -2954.50, 0.000, 0.000, 0.000, 17:28:35.282
12, -589.48, -302.39, 168.11, -3005.11, 0.000, 0.000, 0.000, 17:28:35.282
13, -554.52, -292.49, 143.60, -3079.00, 0.000, 0.000, 0.000, 17:28:35.297
14, -590.93, -310.25, 151.08, -3031.29, 0.000, 0.000, 0.000, 17:28:35.297
15, -613.00, -316.54, 162.99, -2930.24, 0.000, 0.000, 0.000, 17:28:35.312
16, -591.93, -310.98, 172.44, -2998.37, 0.000, 0.000, 0.000, 17:28:35.312
17, -561.24, -292.54, 147.72, -3108.54, 0.000, 0.000, 0.000, 17:28:35.312
18, -577.00, -301.42, 139.81, -2971.60, 0.000, 0.000, 0.000, 17:28:35.312
19, -610.81, -315.05, 162.59, -2912.19, 0.000, 0.000, 0.000, 17:28:35.327
20, -591.41, -304.19, 169.86, -3055.99, 0.000, 0.000, 0.000, 17:28:35.327
21, -543.15, -283.55, 147.23, -3062.45, 0.000, 0.000, 0.000, 17:28:35.357
22, -581.30, -304.46, 149.45, -3001.97, 0.000, 0.000, 0.000, 17:28:35.357
23, -621.38, -325.49, 154.72, -2965.96, 0.000, 0.000, 0.000, 17:28:35.357
24, -591.46, -306.88, 163.23, -3010.10, 0.000, 0.000, 0.000, 17:28:35.357
25, -557.51, -292.57, 146.78, -3094.09, 0.000, 0.000, 0.000, 17:28:35.358
26, -585.13, -304.55, 143.83, -3015.58, 0.000, 0.000, 0.000, 17:28:35.358
27, -627.48, -320.61, 165.43, -2943.01, 0.000, 0.000, 0.000, 17:28:35.359
28, -591.19, -304.20, 166.03, -3025.75, 0.000, 0.000, 0.000, 17:28:35.359
29, -566.91, -288.39, 170.13, -3191.80, 0.000, 0.000, 0.000, 17:28:35.372
30, -575.98, -302.68, 129.12, -2958.19, 0.000, 0.000, 0.000, 17:28:35.372
31, -611.35, -312.22, 155.94, -2927.72, 0.000, 0.000, 0.000, 17:28:35.387
32, -589.07, -295.80, 159.92, -3052.29, 0.000, 0.000, 0.000, 17:28:35.387
33, -544.69, -276.22, 141.28, -3036.46, 0.000, 0.000, 0.000, 17:28:35.402
34, -572.33, -297.31, 143.18, -2976.34, 0.000, 0.000, 0.000, 17:28:35.402
35, -617.90, -316.67, 160.94, -2956.67, 0.000, 0.000, 0.000, 17:28:35.402
36, -577.98, -298.07, 172.48, -3006.47, 0.000, 0.000, 0.000, 17:28:35.402
37, -540.98, -278.70, 142.98, -3067.94, 0.000, 0.000, 0.000, 17:28:35.417
38, -571.56, -292.85, 154.17, -3010.25, 0.000, 0.000, 0.000, 17:28:35.417
39, -606.66, -310.41, 154.76, -2915.03, 0.000, 0.000, 0.000, 17:28:35.432
40, -579.72, -297.02, 173.17, -2999.74, 0.000, 0.000, 0.000, 17:28:35.432
41, -546.27, -277.30, 152.05, -3082.50, 0.000, 0.000, 0.000, 17:28:35.432
42, -565.50, -289.86, 150.23, -2972.59, 0.000, 0.000, 0.000, 17:28:35.432
43, -599.16, -302.72, 151.26, -2929.33, 0.000, 0.000, 0.000, 17:28:35.447
44, -565.08, -277.39, 169.98, -3032.80, 0.000, 0.000, 0.000, 17:28:35.447
45, -502.96, -241.79, 136.53, -3065.91, 0.000, 0.000, 0.000, 17:28:35.462
46, -537.07, -257.62, 136.52, -2988.90, 0.000, 0.000, 0.000, 17:28:35.462
47, -557.34, -261.81, 171.10, -2934.52, 0.000, 0.000, 0.000, 17:28:35.462
48, -521.71, -234.54, 172.57, -2973.71, 0.000, 0.000, 0.000, 17:28:35.462
49, -480.40, -215.85, 160.26, -3038.27, 0.000, 0.000, 0.000, 17:28:35.477
50, -516.84, -232.99, 140.54, -2988.04, 0.000, 0.000, 0.000, 17:28:35.477
51, -542.32, -241.29, 165.30, -2920.66, 0.000, 0.000, 0.000, 17:28:35.492
52, -505.36, -210.06, 179.92, -2978.28, 0.000, 0.000, 0.000, 17:28:35.492
53, -464.52, -194.34, 139.28, -3073.05, 0.000, 0.000, 0.000, 17:28:35.492
54, -477.66, -200.94, 141.33, -2955.39, 0.000, 0.000, 0.000, 17:28:35.492
55, -535.40, -234.16, 155.87, -2941.41, 0.000, 0.000, 0.000, 17:28:35.507
56, -514.49, -215.72, 172.76, -3066.67, 0.000, 0.000, 0.000, 17:28:35.507
57, -470.79, -195.45, 146.11, -3053.30, 0.000, 0.000, 0.000, 17:28:35.522
58, -502.20, -221.78, 144.70, -2993.76, 0.000, 0.000, 0.000, 17:28:35.522
59, -557.27, -251.26, 171.33, -2951.83, 0.000, 0.000, 0.000, 17:28:35.522
60, -538.09, -256.52, 169.84, -2986.96, 0.000, 0.000, 0.000, 17:28:35.522
61, -515.99, -246.53, 146.36, -3053.96, 0.000, 0.000, 0.000, 17:28:35.537
62, -561.56, -279.29, 151.56, -3061.75, 0.000, 0.000, 0.000, 17:28:35.537
63, -613.12, -305.48, 160.12, -2929.76, 0.000, 0.000, 0.000, 17:28:35.552
64, -587.92, -298.93, 168.12, -2987.69, 0.000, 0.000, 0.000, 17:28:35.552
65, -556.97, -291.42, 148.83, -3053.16, 0.000, 0.000, 0.000, 17:28:35.552
66, -601.36, -319.77, 134.73, -2968.50, 0.000, 0.000, 0.000, 17:28:35.553
67, -643.07, -345.97, 153.38, -2959.73, 0.000, 0.000, 0.000, 17:28:35.567
68, -618.47, -333.24, 175.00, -3053.14, 0.000, 0.000, 0.000, 17:28:35.567
69, -578.77, -317.05, 141.45, -3053.87, 0.000, 0.000, 0.000, 17:28:35.582
70, -619.84, -342.78, 135.74, -2996.25, 0.000, 0.000, 0.000, 17:28:35.582
71, -654.10, -353.45, 163.83, -2933.46, 0.000, 0.000, 0.000, 17:28:35.582
72, -618.07, -336.55, 152.31, -2986.33, 0.000, 0.000, 0.000, 17:28:35.582
73, -584.47, -322.72, 132.37, -3089.26, 0.000, 0.000, 0.000, 17:28:35.597
74, -626.08, -352.66, 138.52, -3045.71, 0.000, 0.000, 0.000, 17:28:35.597
75, -653.85, -356.68, 149.96, -2916.11, 0.000, 0.000, 0.000, 17:28:35.612
76, -625.55, -346.87, 154.83, -3007.84, 0.000, 0.000, 0.000, 17:28:35.612
77, -591.93, -328.12, 160.16, -3095.09, 0.000, 0.000, 0.000, 17:28:35.612
78, -624.92, -344.68, 125.04, -2973.07, 0.000, 0.000, 0.000, 17:28:35.612
79, -658.41, -358.42, 152.15, -2919.95, 0.000, 0.000, 0.000, 17:28:35.627
80, -636.96, -346.71, 166.83, -3056.14, 0.000, 0.000, 0.000, 17:28:35.627
81, -591.64, -326.36, 155.78, -3040.68, 0.000, 0.000, 0.000, 17:28:35.642
82, -626.04, -343.55, 140.87, -2999.85, 0.000, 0.000, 0.000, 17:28:35.642
83, -664.64, -362.72, 133.15, -2979.33, 0.000, 0.000, 0.000, 17:28:35.642
84, -630.64, -345.13, 146.22, -3023.54, 0.000, 0.000, 0.000, 17:28:35.642
85, -592.98, -326.43, 132.56, -3061.64, 0.000, 0.000, 0.000, 17:28:35.657
86, -626.87, -343.02, 151.53, -3037.92, 0.000, 0.000, 0.000, 17:28:35.657
87, -660.87, -360.75, 140.71, -2959.61, 0.000, 0.000, 0.000, 17:28:35.687
88, -619.90, -332.45, 156.78, -3001.57, 0.000, 0.000, 0.000, 17:28:35.687
89, -572.54, -303.17, 146.85, -3074.70, 0.000, 0.000, 0.000, 17:28:35.687
90, -611.29, -330.21, 131.02, -2974.16, 0.000, 0.000, 0.000, 17:28:35.687
91, -643.59, -348.13, 156.68, -2912.37, 0.000, 0.000, 0.000, 17:28:35.688
92, -612.28, -324.38, 165.51, -3009.26, 0.000, 0.000, 0.000, 17:28:35.688
93, -574.29, -312.78, 139.03, -3064.10, 0.000, 0.000, 0.000, 17:28:35.689
94, -605.07, -331.61, 138.55, -2976.19, 0.000, 0.000, 0.000, 17:28:35.689
95, -664.19, -354.14, 180.05, -3069.94, 0.000, 0.000, 0.000, 17:28:35.702
96, -604.99, -320.27, 166.98, -2976.08, 0.000, 0.000, 0.000, 17:28:35.702
97, -564.18, -302.61, 143.86, -3055.60, 0.000, 0.000, 0.000, 17:28:35.717
98, -601.15, -326.00, 137.36, -3005.45, 0.000, 0.000, 0.000, 17:28:35.717
99, -634.47, -340.85, 154.05, -2935.11, 0.000, 0.000, 0.000, 17:28:35.732
100, -602.79, -320.01, 167.44, -2993.61, 0.000, 0.000, 0.000, 17:28:35.732
101, -562.53, -299.61, 156.71, -3078.43, 0.000, 0.000, 0.000, 17:28:35.732
102, -598.30, -322.87, 129.58, -2954.53, 0.000, 0.000, 0.000, 17:28:35.732
103, -643.94, -342.83, 140.64, -2916.82, 0.000, 0.000, 0.000, 17:28:35.747
104, -616.42, -325.51, 163.38, -3045.23, 0.000, 0.000, 0.000, 17:28:35.747
105, -563.91, -297.43, 153.27, -3050.81, 0.000, 0.000, 0.000, 17:28:35.762
106, -602.43, -321.59, 132.87, -3003.14, 0.000, 0.000, 0.000, 17:28:35.762
107, -640.38, -339.53, 152.26, -2942.86, 0.000, 0.000, 0.000, 17:28:35.762
108, -604.13, -319.91, 161.26, -2967.96, 0.000, 0.000, 0.000, 17:28:35.762
109, -562.64, -298.53, 145.40, -3038.70, 0.000, 0.000, 0.000, 17:28:35.777
110, -599.62, -319.60, 134.89, -2994.65, 0.000, 0.000, 0.000, 17:28:35.777
111, -634.10, -333.25, 156.99, -2899.49, 0.000, 0.000, 0.000, 17:28:35.792
112, -603.43, -314.18, 161.52, -2989.76, 0.000, 0.000, 0.000, 17:28:35.792
113, -565.09, -296.59, 147.49, -3064.39, 0.000, 0.000, 0.000, 17:28:35.792
114, -588.77, -315.89, 141.20, -2956.46, 0.000, 0.000, 0.000, 17:28:35.792
115, -631.52, -335.67, 164.31, -2955.73, 0.000, 0.000, 0.000, 17:28:35.807
116, -599.96, -308.81, 185.29, -3048.01, 0.000, 0.000, 0.000, 17:28:35.807
117, -551.56, -286.93, 150.16, -3032.91, 0.000, 0.000, 0.000, 17:28:35.822
118, -590.06, -312.91, 134.67, -2988.43, 0.000, 0.000, 0.000, 17:28:35.822
119, -631.81, -331.61, 173.20, -2946.91, 0.000, 0.000, 0.000, 17:28:35.822
120, -589.87, -307.10, 174.19, -2990.09, 0.000, 0.000, 0.000, 17:28:35.822
121, -546.55, -282.04, 150.87, -3057.17, 0.000, 0.000, 0.000, 17:28:35.837
122, -595.22, -312.88, 151.10, -3040.35, 0.000, 0.000, 0.000, 17:28:35.837
123, -635.40, -328.84, 168.30, -2937.61, 0.000, 0.000, 0.000, 17:28:35.852
124, -600.25, -309.13, 168.75, -2990.61, 0.000, 0.000, 0.000, 17:28:35.852
125, -556.75, -281.54, 159.11, -3053.65, 0.000, 0.000, 0.000, 17:28:35.852
126, -586.65, -305.41, 142.22, -2978.53, 0.000, 0.000, 0.000, 17:28:35.852
127, -628.70, -320.50, 149.03, -2907.65, 0.000, 0.000, 0.000, 17:28:35.867
128, -600.78, -308.87, 167.22, -3022.23, 0.000, 0.000, 0.000, 17:28:35.867
129, -550.07, -287.02, 151.08, -3037.17, 0.000, 0.000, 0.000, 17:28:35.882
130, -590.15, -305.88, 130.04, -2983.39, 0.000, 0.000, 0.000, 17:28:35.882
131, -627.31, -325.34, 168.38, -2946.01, 0.000, 0.000, 0.000, 17:28:35.882
132, -580.97, -296.75, 173.62, -2969.08, 0.000, 0.000, 0.000, 17:28:35.882
133, -553.28, -289.31, 145.76, -3072.38, 0.000, 0.000, 0.000, 17:28:35.897
134, -593.66, -311.74, 150.78, -3052.95, 0.000, 0.000, 0.000, 17:28:35.897
135, -624.73, -321.41, 161.85, -2921.79, 0.000, 0.000, 0.000, 17:28:35.912
136, -596.38, -303.86, 174.72, -2998.35, 0.000, 0.000, 0.000, 17:28:35.912
137, -558.26, -287.40, 141.51, -3061.35, 0.000, 0.000, 0.000, 17:28:35.912
138, -593.41, -307.72, 127.39, -2949.80, 0.000, 0.000, 0.000, 17:28:35.912
139, -629.19, -326.01, 156.08, -2928.37, 0.000, 0.000, 0.000, 17:28:35.927
140, -613.64, -313.19, 163.62, -3042.54, 0.000, 0.000, 0.000, 17:28:35.927
141, -556.24, -291.51, 133.59, -3040.71, 0.000, 0.000, 0.000, 17:28:35.942
142, -586.12, -309.52, 122.62, -2990.69, 0.000, 0.000, 0.000, 17:28:35.942
143, -629.71, -327.63, 164.14, -2965.66, 0.000, 0.000, 0.000, 17:28:35.942
144, -594.20, -304.97, 157.31, -2983.83, 0.000, 0.000, 0.000, 17:28:35.942
145, -555.67, -286.64, 133.54, -3059.61, 0.000, 0.000, 0.000, 17:28:35.957
146, -594.84, -304.49, 138.72, -3029.60, 0.000, 0.000, 0.000, 17:28:35.957
147, -628.94, -329.45, 155.24, -2936.14, 0.000, 0.000, 0.000, 17:28:35.972
148, -589.81, -306.89, 166.33, -3009.11, 0.000, 0.000, 0.000, 17:28:35.972
149, -554.90, -286.31, 151.01, -3074.65, 0.000, 0.000, 0.000, 17:28:35.972
150, -587.65, -310.30, 139.12, -2973.93, 0.000, 0.000, 0.000, 17:28:35.972
151, -636.21, -327.76, 155.86, -2931.77, 0.000, 0.000, 0.000, 17:28:36.002
152, -606.37, -313.75, 182.18, -3047.02, 0.000, 0.000, 0.000, 17:28:36.002
153, -448.25, -186.01, 255.41, -2934.83, 0.000, 0.000, 0.000, 17:28:36.002
154, -453.42, -174.85, 285.35, -2820.78, 0.000, 0.000, 0.000, 17:28:36.002
155, -479.36, -181.12, 316.72, -2787.03, 0.000, 0.000, 0.000, 17:28:36.003
156, -450.15, -162.82, 326.38, -2860.43, 0.000, 0.000, 0.000, 17:28:36.003
157, -406.02, -141.54, 301.64, -2904.96, 0.000, 0.000, 0.000, 17:28:36.017
158, -457.85, -167.90, 303.58, -2934.27, 0.000, 0.000, 0.000, 17:28:36.017
159, -492.33, -194.10, 304.77, -2786.78, 0.000, 0.000, 0.000, 17:28:36.032
160, -467.68, -178.58, 298.23, -2889.29, 0.000, 0.000, 0.000, 17:28:36.032
161, -426.20, -160.16, 284.35, -2937.61, 0.000, 0.000, 0.000, 17:28:36.032
162, -454.16, -178.53, 259.60, -2853.66, 0.000, 0.000, 0.000, 17:28:36.032
163, -485.61, -187.32, 292.19, -2796.10, 0.000, 0.000, 0.000, 17:28:36.047
164, -472.28, -184.91, 305.16, -2940.96, 0.000, 0.000, 0.000, 17:28:36.047
165, -438.23, -176.27, 258.72, -2929.27, 0.000, 0.000, 0.000, 17:28:36.062
166, -485.96, -211.22, 237.92, -2910.21, 0.000, 0.000, 0.000, 17:28:36.062
167, -537.91, -239.03, 244.11, -2863.74, 0.000, 0.000, 0.000, 17:28:36.062
168, -508.95, -229.61, 242.09, -2907.44, 0.000, 0.000, 0.000, 17:28:36.062
169, -475.54, -210.79, 215.03, -2974.05, 0.000, 0.000, 0.000, 17:28:36.077
170, -516.64, -237.21, 214.33, -2943.35, 0.000, 0.000, 0.000, 17:28:36.077
171, -508.00, -209.90, 275.34, -2807.02, 0.000, 0.000, 0.000, 17:28:36.092
172, -424.98, -138.40, 346.28, -2839.95, 0.000, 0.000, 0.000, 17:28:36.092
173, -378.65, -108.95, 327.84, -2918.97, 0.000, 0.000, 0.000, 17:28:36.092
174, -409.90, -126.99, 321.54, -2830.92, 0.000, 0.000, 0.000, 17:28:36.092
175, -452.90, -150.20, 336.77, -2775.24, 0.000, 0.000, 0.000, 17:28:36.107
176, -431.93, -134.81, 362.16, -2891.43, 0.000, 0.000, 0.000, 17:28:36.107
177, -392.74, -124.99, 313.14, -2851.05, 0.000, 0.000, 0.000, 17:28:36.122
178, -420.37, -141.73, 301.62, -2802.96, 0.000, 0.000, 0.000, 17:28:36.122
179, -481.32, -180.74, 306.52, -2808.67, 0.000, 0.000, 0.000, 17:28:36.122
180, -459.46, -174.28, 292.49, -2862.50, 0.000, 0.000, 0.000, 17:28:36.122
181, -431.98, -165.57, 265.16, -2905.89, 0.000, 0.000, 0.000, 17:28:36.137
182, -487.95, -206.64, 227.78, -2917.58, 0.000, 0.000, 0.000, 17:28:36.137
183, -530.99, -237.15, 238.41, -2813.75, 0.000, 0.000, 0.000, 17:28:36.152
184, -532.03, -251.14, 210.23, -2913.99, 0.000, 0.000, 0.000, 17:28:36.152
185, -532.93, -269.47, 158.38, -3023.83, 0.000, 0.000, 0.000, 17:28:36.152
186, -610.10, -329.61, 94.44, -2992.10, 0.000, 0.000, 0.000, 17:28:36.152
187, -672.36, -370.94, 99.30, -2990.39, 0.000, 0.000, 0.000, 17:28:36.167
188, -675.21, -382.01, 109.21, -3112.52, 0.000, 0.000, 0.000, 17:28:36.167
189, -633.16, -368.15, 73.99, -3116.61, 0.000, 0.000, 0.000, 17:28:36.182
190, -658.04, -380.20, 75.94, -3032.39, 0.000, 0.000, 0.000, 17:28:36.182
191, -687.01, -382.05, 125.34, -2998.86, 0.000, 0.000, 0.000, 17:28:36.182
192, -642.31, -359.28, 133.90, -3034.66, 0.000, 0.000, 0.000, 17:28:36.182
193, -582.53, -318.16, 132.31, -3057.46, 0.000, 0.000, 0.000, 17:28:36.197
194, -618.19, -331.14, 136.61, -3052.40, 0.000, 0.000, 0.000, 17:28:36.197
195, -630.77, -328.70, 160.66, -2930.88, 0.000, 0.000, 0.000, 17:28:36.212
196, -597.70, -319.15, 166.50, -3010.16, 0.000, 0.000, 0.000, 17:28:36.212
197, -548.61, -284.42, 148.99, -3073.19, 0.000, 0.000, 0.000, 17:28:36.212
198, -564.17, -289.95, 142.24, -2954.56, 0.000, 0.000, 0.000, 17:28:36.212
199, -601.31, -305.29, 167.22, -2915.43, 0.000, 0.000, 0.000, 17:28:36.227
200, -576.41, -285.37, 178.93, -3051.73, 0.000, 0.000, 0.000, 17:28:36.227
0, -530.66, -265.21, 152.96, -3045.50, 0.000, 0.000, 0.000, 17:28:36.227
1, -544.89, -267.44, 171.59, -2954.57, 0.000, 0.000, 0.000, 17:28:36.242
2, -576.86, -274.46, 213.06, -2920.76, 0.000, 0.000, 0.000, 17:28:36.242
3, -530.74, -244.60, 205.57, -2958.63, 0.000, 0.000, 0.000, 17:28:36.257
4, -475.06, -209.86, 218.46, -3010.23, 0.000, 0.000, 0.000, 17:28:36.260
5, -497.21, -220.01, 229.08, -2953.73, 0.000, 0.000, 0.000, 17:28:36.260
6, -523.57, -221.06, 256.77, -2811.33, 0.000, 0.000, 0.000, 17:28:36.260
7, -502.22, -213.06, 262.48, -2889.38, 0.000, 0.000, 0.000, 17:28:36.272
8, -467.12, -197.01, 250.69, -3009.15, 0.000, 0.000, 0.000, 17:28:36.272
9, -493.25, -211.82, 240.51, -2903.90, 0.000, 0.000, 0.000, 17:28:36.287
10, -526.96, -225.22, 263.02, -2834.13, 0.000, 0.000, 0.000, 17:28:36.287
11, -515.04, -218.05, 254.22, -2938.23, 0.000, 0.000, 0.000, 17:28:36.287
12, -464.73, -198.04, 232.98, -2953.68, 0.000, 0.000, 0.000, 17:28:36.287
13, -501.94, -232.11, 221.46, -2891.52, 0.000, 0.000, 0.000, 17:28:36.317
14, -550.56, -250.32, 245.79, -2878.43, 0.000, 0.000, 0.000, 17:28:36.317
15, -517.62, -225.94, 232.08, -2934.28, 0.000, 0.000, 0.000, 17:28:36.317
16, -486.98, -220.31, 209.82, -3004.97, 0.000, 0.000, 0.000, 17:28:36.317
17, -511.85, -229.65, 211.76, -2921.15, 0.000, 0.000, 0.000, 17:28:36.318
18, -544.12, -242.94, 237.19, -2840.17, 0.000, 0.000, 0.000, 17:28:36.318
19, -516.66, -228.03, 242.38, -2940.43, 0.000, 0.000, 0.000, 17:28:36.332
20, -494.77, -217.26, 233.41, -3075.47, 0.000, 0.000, 0.000, 17:28:36.332
21, -518.28, -236.09, 208.91, -2903.39, 0.000, 0.000, 0.000, 17:28:36.347
22, -550.31, -245.97, 237.15, -2837.53, 0.000, 0.000, 0.000, 17:28:36.347
23, -529.04, -239.25, 236.58, -2962.69, 0.000, 0.000, 0.000, 17:28:36.347
24, -487.08, -221.69, 197.61, -2980.83, 0.000, 0.000, 0.000, 17:28:36.347
25, -515.08, -234.23, 209.04, -2927.64, 0.000, 0.000, 0.000, 17:28:36.362
26, -564.45, -254.35, 223.99, -2921.67, 0.000, 0.000, 0.000, 17:28:36.362
27, -515.14, -236.58, 226.66, -2927.86, 0.000, 0.000, 0.000, 17:28:36.377
28, -477.87, -208.07, 209.47, -2976.16, 0.000, 0.000, 0.000, 17:28:36.377
29, -513.51, -230.71, 208.13, -2938.28, 0.000, 0.000, 0.000, 17:28:36.377
30, -552.07, -246.74, 225.67, -2849.07, 0.000, 0.000, 0.000, 17:28:36.377
31, -522.73, -232.00, 231.58, -2951.35, 0.000, 0.000, 0.000, 17:28:36.392
32, -496.68, -220.06, 213.04, -3064.18, 0.000, 0.000, 0.000, 17:28:36.392
33, -521.03, -242.52, 197.67, -2938.61, 0.000, 0.000, 0.000, 17:28:36.407
34, -564.33, -263.79, 202.75, -2880.97, 0.000, 0.000, 0.000, 17:28:36.407
35, -540.21, -254.75, 218.96, -2992.93, 0.000, 0.000, 0.000, 17:28:36.407
36, -500.68, -231.18, 198.31, -2992.73, 0.000, 0.000, 0.000, 17:28:36.407
37, -528.98, -248.00, 190.96, -2938.76, 0.000, 0.000, 0.000, 17:28:36.422
38, -579.05, -267.28, 223.47, -2917.88, 0.000, 0.000, 0.000, 17:28:36.422
39, -544.50, -253.13, 206.27, -2950.44, 0.000, 0.000, 0.000, 17:28:36.437
40, -511.83, -238.75, 188.14, -3002.87, 0.000, 0.000, 0.000, 17:28:36.437
41, -546.09, -256.76, 188.31, -2972.06, 0.000, 0.000, 0.000, 17:28:36.437
42, -568.26, -267.91, 220.37, -2886.24, 0.000, 0.000, 0.000, 17:28:36.437
43, -548.40, -256.64, 222.79, -2961.67, 0.000, 0.000, 0.000, 17:28:36.452
44, -515.04, -241.07, 214.01, -3047.16, 0.000, 0.000, 0.000, 17:28:36.452
45, -541.54, -262.44, 166.83, -2917.87, 0.000, 0.000, 0.000, 17:28:36.466
46, -584.83, -284.98, 190.47, -2896.69, 0.000, 0.000, 0.000, 17:28:36.467
47, -532.44, -244.52, 230.74, -2960.84, 0.000, 0.000, 0.000, 17:28:36.467
48, -497.46, -226.03, 195.91, -3008.18, 0.000, 0.000, 0.000, 17:28:36.467
49, -529.25, -246.83, 197.02, -2916.80, 0.000, 0.000, 0.000, 17:28:36.482
50, -570.61, -262.57, 215.41, -2920.09, 0.000, 0.000, 0.000, 17:28:36.482
51, -531.19, -245.05, 218.59, -2948.54, 0.000, 0.000, 0.000, 17:28:36.497
52, -497.74, -231.07, 196.06, -2998.81, 0.000, 0.000, 0.000, 17:28:36.497
53, -526.78, -253.22, 191.85, -2966.36, 0.000, 0.000, 0.000, 17:28:36.497
54, -564.98, -269.33, 216.25, -2868.51, 0.000, 0.000, 0.000, 17:28:36.497
55, -540.48, -255.23, 214.64, -2951.84, 0.000, 0.000, 0.000, 17:28:36.512
56, -512.60, -242.19, 195.28, -3059.79, 0.000, 0.000, 0.000, 17:28:36.512
57, -544.06, -263.59, 170.00, -2952.46, 0.000, 0.000, 0.000, 17:28:36.527
58, -572.17, -273.30, 208.74, -2904.77, 0.000, 0.000, 0.000, 17:28:36.527
59, -562.74, -269.08, 211.25, -3033.99, 0.000, 0.000, 0.000, 17:28:36.527
60, -524.00, -253.55, 175.26, -3022.74, 0.000, 0.000, 0.000, 17:28:36.527
61, -556.90, -276.86, 170.59, -2953.05, 0.000, 0.000, 0.000, 17:28:36.542
62, -590.26, -283.86, 214.30, -2940.51, 0.000, 0.000, 0.000, 17:28:36.542
63, -560.23, -275.64, 181.94, -2975.13, 0.000, 0.000, 0.000, 17:28:36.557
64, -533.60, -269.98, 170.55, -3048.29, 0.000, 0.000, 0.000, 17:28:36.557
65, -565.36, -282.92, 159.03, -2999.94, 0.000, 0.000, 0.000, 17:28:36.557
66, -595.25, -292.17, 188.19, -2902.09, 0.000, 0.000, 0.000, 17:28:36.557
67, -570.60, -281.68, 185.56, -3015.70, 0.000, 0.000, 0.000, 17:28:36.572
68, -540.51, -272.77, 172.16, -3097.24, 0.000, 0.000, 0.000, 17:28:36.572
69, -564.86, -287.40, 165.32, -2971.42, 0.000, 0.000, 0.000, 17:28:36.587
70, -602.14, -302.64, 194.53, -2934.17, 0.000, 0.000, 0.000, 17:28:36.587
71, -563.85, -278.35, 222.78, -3008.16, 0.000, 0.000, 0.000, 17:28:36.587
72, -513.32, -254.33, 183.83, -3024.02, 0.000, 0.000, 0.000, 17:28:36.587
73, -549.06, -269.99, 180.93, -2973.87, 0.000, 0.000, 0.000, 17:28:36.602
74, -590.78, -289.98, 211.02, -2962.72, 0.000, 0.000, 0.000, 17:28:36.602
75, -561.32, -272.23, 199.01, -2952.22, 0.000, 0.000, 0.000, 17:28:36.617
76, -516.84, -252.39, 174.08, -3032.22, 0.000, 0.000, 0.000, 17:28:36.617
77, -548.24, -265.54, 178.20, -2971.08, 0.000, 0.000, 0.000, 17:28:36.617
78, -577.51, -280.04, 193.21, -2861.30, 0.000, 0.000, 0.000, 17:28:36.617
79, -556.52, -270.63, 190.89, -2977.61, 0.000, 0.000, 0.000, 17:28:36.647
80, -526.16, -259.92, 168.58, -3080.16, 0.000, 0.000, 0.000, 17:28:36.647
81, -556.34, -280.21, 160.64, -2973.12, 0.000, 0.000, 0.000, 17:28:36.647
82, -592.53, -293.84, 186.56, -2918.00, 0.000, 0.000, 0.000, 17:28:36.647
83, -558.33, -271.06, 200.75, -2965.52, 0.000, 0.000, 0.000, 17:28:36.648
84, -518.84, -252.10, 185.17, -3013.27, 0.000, 0.000, 0.000, 17:28:36.648
85, -548.68, -269.21, 174.79, -2925.90, 0.000, 0.000, 0.000, 17:28:36.662
86, -606.80, -297.12, 217.32, -2957.64, 0.000, 0.000, 0.000, 17:28:36.662
87, -564.32, -273.96, 202.55, -2924.59, 0.000, 0.000, 0.000, 17:28:36.677
88, -524.01, -258.48, 171.00, -3015.62, 0.000, 0.000, 0.000, 17:28:36.677
89, -564.35, -279.73, 164.58, -3003.18, 0.000, 0.000, 0.000, 17:28:36.677
90, -596.58, -298.58, 190.02, -2904.37, 0.000, 0.000, 0.000, 17:28:36.677
91, -566.31, -278.81, 205.01, -2950.70, 0.000, 0.000, 0.000, 17:28:36.692
92, -538.70, -264.84, 170.25, -3088.76, 0.000, 0.000, 0.000, 17:28:36.692
93, -566.18, -281.98, 153.34, -2937.46, 0.000, 0.000, 0.000, 17:28:36.707
94, -596.38, -295.63, 186.03, -2917.82, 0.000, 0.000, 0.000, 17:28:36.707
95, -575.83, -281.93, 196.92, -3006.46, 0.000, 0.000, 0.000, 17:28:36.707
96, -534.70, -262.86, 163.70, -3011.38, 0.000, 0.000, 0.000, 17:28:36.707
99, -502.99, -247.35, 156.19, -3046.72, 0.000, 0.000, 0.000, 17:28:36.737
100, -468.76, -239.37, 136.73, -3113.68, 0.000, 0.000, 0.000, 17:28:36.737
101, -495.63, -248.48, 148.80, -3065.32, 0.000, 0.000, 0.000, 17:28:36.737
102, -525.33, -261.59, 176.72, -2979.13, 0.000, 0.000, 0.000, 17:28:36.737
103, -505.14, -255.89, 167.94, -3059.71, 0.000, 0.000, 0.000, 17:28:36.752
104, -476.29, -242.57, 147.23, -3177.97, 0.000, 0.000, 0.000, 17:28:36.752
105, -491.94, -251.18, 142.27, -3036.88, 0.000, 0.000, 0.000, 17:28:36.767
106, -532.87, -268.73, 162.76, -2980.39, 0.000, 0.000, 0.000, 17:28:36.767
107, -498.56, -244.24, 182.91, -3088.60, 0.000, 0.000, 0.000, 17:28:36.767
108, -473.31, -240.44, 138.52, -3119.72, 0.000, 0.000, 0.000, 17:28:36.767
109, -491.56, -252.82, 142.99, -3069.74, 0.000, 0.000, 0.000, 17:28:36.782
110, -534.27, -266.28, 178.08, -3041.69, 0.000, 0.000, 0.000, 17:28:36.782
111, -497.81, -246.62, 172.25, -3050.31, 0.000, 0.000, 0.000, 17:28:36.798
112, -461.41, -227.81, 149.33, -3112.38, 0.000, 0.000, 0.000, 17:28:36.798
113, -487.14, -246.64, 155.90, -3062.65, 0.000, 0.000, 0.000, 17:28:36.798
114, -528.80, -264.52, 162.07, -3008.53, 0.000, 0.000, 0.000, 17:28:36.799
115, -499.24, -242.84, 168.85, -3099.21, 0.000, 0.000, 0.000, 17:28:36.812
116, -477.29, -231.97, 147.13, -3198.91, 0.000, 0.000, 0.000, 17:28:36.812
117, -498.46, -253.37, 141.01, -3061.97, 0.000, 0.000, 0.000, 17:28:36.827
118, -521.79, -257.63, 177.31, -2993.02, 0.000, 0.000, 0.000, 17:28:36.827
119, -492.01, -238.03, 180.56, -3074.91, 0.000, 0.000, 0.000, 17:28:36.827
120, -455.53, -222.30, 140.21, -3092.57, 0.000, 0.000, 0.000, 17:28:36.827
121, -472.17, -231.13, 147.05, -3024.68, 0.000, 0.000, 0.000, 17:28:36.842
122, -526.57, -260.54, 169.18, -3021.54, 0.000, 0.000, 0.000, 17:28:36.842
123, -492.04, -240.98, 170.43, -3027.79, 0.000, 0.000, 0.000, 17:28:36.857
124, -456.45, -219.02, 146.61, -3098.23, 0.000, 0.000, 0.000, 17:28:36.857
125, -486.87, -237.55, 147.57, -3049.02, 0.000, 0.000, 0.000, 17:28:36.857
126, -518.32, -248.44, 167.32, -2945.75, 0.000, 0.000, 0.000, 17:28:36.857
127, -495.84, -239.82, 173.97, -3014.22, 0.000, 0.000, 0.000, 17:28:36.872
128, -466.49, -232.38, 160.08, -3146.88, 0.000, 0.000, 0.000, 17:28:36.872
129, -483.81, -240.27, 154.12, -3026.68, 0.000, 0.000, 0.000, 17:28:36.887
130, -522.44, -254.76, 172.51, -2973.16, 0.000, 0.000, 0.000, 17:28:36.887
131, -495.61, -238.22, 186.48, -3060.49, 0.000, 0.000, 0.000, 17:28:36.887
132, -468.44, -239.10, 140.66, -3113.26, 0.000, 0.000, 0.000, 17:28:36.887
133, -485.90, -247.53, 145.59, -3029.70, 0.000, 0.000, 0.000, 17:28:36.902
134, -537.89, -269.36, 177.65, -3038.33, 0.000, 0.000, 0.000, 17:28:36.902
135, -503.52, -255.15, 176.08, -3069.34, 0.000, 0.000, 0.000, 17:28:36.916
136, -469.37, -237.00, 147.15, -3116.23, 0.000, 0.000, 0.000, 17:28:36.917
137, -489.16, -246.03, 147.00, -3059.09, 0.000, 0.000, 0.000, 17:28:36.917
138, -532.22, -268.16, 155.32, -2989.12, 0.000, 0.000, 0.000, 17:28:36.917
139, -499.37, -249.17, 168.67, -3045.69, 0.000, 0.000, 0.000, 17:28:36.932
140, -460.29, -233.96, 154.53, -3137.85, 0.000, 0.000, 0.000, 17:28:36.932
141, -478.80, -243.81, 135.80, -2999.07, 0.000, 0.000, 0.000, 17:28:36.962
142, -523.02, -262.80, 155.78, -2957.51, 0.000, 0.000, 0.000, 17:28:36.962
143, -498.58, -247.81, 168.47, -3069.82, 0.000, 0.000, 0.000, 17:28:36.962
144, -459.90, -231.98, 143.72, -3083.80, 0.000, 0.000, 0.000, 17:28:36.962
145, -496.48, -251.08, 145.81, -3047.70, 0.000, 0.000, 0.000, 17:28:36.963
146, -531.65, -264.45, 156.10, -2979.08, 0.000, 0.000, 0.000, 17:28:36.963
147, -506.91, -252.16, 152.17, -3071.72, 0.000, 0.000, 0.000, 17:28:36.964
148, -471.60, -239.84, 128.55, -3121.20, 0.000, 0.000, 0.000, 17:28:36.964
149, -511.90, -258.20, 147.74, -3155.34, 0.000, 0.000, 0.000, 17:28:36.977
150, -528.50, -263.83, 158.15, -2999.70, 0.000, 0.000, 0.000, 17:28:36.977
151, -513.54, -251.86, 164.82, -3086.29, 0.000, 0.000, 0.000, 17:28:36.992
152, -481.65, -241.96, 143.05, -3170.01, 0.000, 0.000, 0.000, 17:28:36.992
153, -510.20, -266.39, 126.38, -3014.62, 0.000, 0.000, 0.000, 17:28:37.007
154, -530.66, -262.71, 159.88, -2970.12, 0.000, 0.000, 0.000, 17:28:37.007
155, -507.10, -253.02, 164.64, -3077.84, 0.000, 0.000, 0.000, 17:28:37.007
156, -475.65, -242.69, 131.11, -3088.29, 0.000, 0.000, 0.000, 17:28:37.007
157, -506.93, -259.23, 124.16, -3054.69, 0.000, 0.000, 0.000, 17:28:37.022
158, -546.78, -283.48, 159.67, -3027.24, 0.000, 0.000, 0.000, 17:28:37.022
159, -508.51, -261.87, 165.26, -3016.83, 0.000, 0.000, 0.000, 17:28:37.037
160, -479.72, -247.71, 129.71, -3103.45, 0.000, 0.000, 0.000, 17:28:37.037
161, -503.78, -258.94, 128.45, -3030.03, 0.000, 0.000, 0.000, 17:28:37.037
162, -539.85, -276.51, 147.30, -2933.88, 0.000, 0.000, 0.000, 17:28:37.037
163, -515.00, -259.82, 151.46, -3051.42, 0.000, 0.000, 0.000, 17:28:37.052
164, -486.11, -248.10, 137.08, -3161.02, 0.000, 0.000, 0.000, 17:28:37.052
165, -511.04, -261.09, 121.88, -3033.99, 0.000, 0.000, 0.000, 17:28:37.067
166, -531.02, -265.22, 157.34, -2969.86, 0.000, 0.000, 0.000, 17:28:37.067
167, -512.76, -254.58, 147.72, -3072.66, 0.000, 0.000, 0.000, 17:28:37.067
168, -471.29, -243.97, 123.83, -3093.50, 0.000, 0.000, 0.000, 17:28:37.067
169, -498.51, -255.14, 117.73, -3048.33, 0.000, 0.000, 0.000, 17:28:37.082
170, -543.59, -273.42, 147.47, -3031.89, 0.000, 0.000, 0.000, 17:28:37.082
171, -509.37, -256.69, 140.89, -3062.27, 0.000, 0.000, 0.000, 17:28:37.097
172, -476.49, -241.36, 123.69, -3125.11, 0.000, 0.000, 0.000, 17:28:37.097
173, -505.89, -258.17, 127.96, -3057.30, 0.000, 0.000, 0.000, 17:28:37.097
174, -533.22, -266.69, 144.89, -2975.64, 0.000, 0.000, 0.000, 17:28:37.097
175, -511.75, -260.38, 158.52, -3107.32, 0.000, 0.000, 0.000, 17:28:37.112
176, -484.72, -249.08, 143.02, -3161.78, 0.000, 0.000, 0.000, 17:28:37.112
177, -504.66, -261.79, 117.27, -3058.67, 0.000, 0.000, 0.000, 17:28:37.128
178, -545.03, -280.11, 141.74, -3010.22, 0.000, 0.000, 0.000, 17:28:37.128
179, -520.10, -264.56, 154.35, -3102.99, 0.000, 0.000, 0.000, 17:28:37.128
180, -485.68, -252.38, 119.79, -3155.56, 0.000, 0.000, 0.000, 17:28:37.128
181, -517.85, -271.28, 115.34, -3078.03, 0.000, 0.000, 0.000, 17:28:37.142
182, -560.02, -283.10, 149.45, -3028.61, 0.000, 0.000, 0.000, 17:28:37.142
183, -524.01, -272.04, 140.52, -3061.93, 0.000, 0.000, 0.000, 17:28:37.157
184, -490.04, -259.23, 109.39, -3132.16, 0.000, 0.000, 0.000, 17:28:37.157
185, -517.31, -267.01, 118.76, -3081.98, 0.000, 0.000, 0.000, 17:28:37.157
186, -553.94, -283.12, 131.72, -2973.11, 0.000, 0.000, 0.000, 17:28:37.157
187, -518.55, -259.32, 144.01, -3080.13, 0.000, 0.000, 0.000, 17:28:37.172
188, -481.28, -250.43, 143.31, -3198.13, 0.000, 0.000, 0.000, 17:28:37.172
189, -506.74, -265.41, 124.75, -3065.14, 0.000, 0.000, 0.000, 17:28:37.187
190, -545.13, -279.70, 149.87, -2983.05, 0.000, 0.000, 0.000, 17:28:37.187
191, -519.92, -269.88, 155.94, -3077.07, 0.000, 0.000, 0.000, 17:28:37.187
192, -485.38, -256.10, 130.36, -3108.28, 0.000, 0.000, 0.000, 17:28:37.187
193, -511.12, -268.70, 125.11, -3049.30, 0.000, 0.000, 0.000, 17:28:37.202
194, -555.20, -282.10, 157.34, -3028.21, 0.000, 0.000, 0.000, 17:28:37.202
195, -513.08, -259.79, 149.40, -3052.58, 0.000, 0.000, 0.000, 17:28:37.217
196, -483.80, -246.91, 118.51, -3125.63, 0.000, 0.000, 0.000, 17:28:37.217
197, -515.24, -270.21, 109.31, -3067.62, 0.000, 0.000, 0.000, 17:28:37.217
198, -544.35, -277.56, 140.72, -2989.88, 0.000, 0.000, 0.000, 17:28:37.217
199, -517.69, -262.59, 133.36, -3079.90, 0.000, 0.000, 0.000, 17:28:37.232
200, -484.65, -249.59, 124.06, -3196.10, 0.000, 0.000, 0.000, 17:28:37.232
0, -572.18, -292.56, 152.61, -2975.29, 0.000, 0.000, 0.000, 17:28:37.232
1, -606.10, -310.74, 160.65, -2931.69, 0.000, 0.000, 0.000, 17:28:37.247
2, -596.58, -305.95, 175.23, -3059.60, 0.000, 0.000, 0.000, 17:28:37.247
3, -539.70, -278.78, 151.18, -3017.44, 0.000, 0.000, 0.000, 17:28:37.277
4, -566.79, -288.37, 141.34, -2961.31, 0.000, 0.000, 0.000, 17:28:37.277
5, -606.57, -310.33, 165.66, -2941.49, 0.000, 0.000, 0.000, 17:28:37.277
6, -588.33, -304.28, 155.89, -2983.96, 0.000, 0.000, 0.000, 17:28:37.277
7, -544.52, -275.80, 147.22, -3052.92, 0.000, 0.000, 0.000, 17:28:37.278
8, -566.98, -288.51, 145.57, -2964.37, 0.000, 0.000, 0.000, 17:28:37.278
9, -592.86, -294.02, 179.24, -2879.97, 0.000, 0.000, 0.000, 17:28:37.279
10, -577.66, -295.79, 170.78, -2991.04, 0.000, 0.000, 0.000, 17:28:37.279
11, -565.08, -293.18, 169.77, -3186.62, 0.000, 0.000, 0.000, 17:28:37.292
12, -571.71, -299.17, 146.51, -2970.55, 0.000, 0.000, 0.000, 17:28:37.292
13, -600.44, -305.92, 184.62, -2899.75, 0.000, 0.000, 0.000, 17:28:37.307
14, -582.46, -303.86, 173.51, -3002.20, 0.000, 0.000, 0.000, 17:28:37.307
15, -544.51, -279.57, 137.96, -3032.25, 0.000, 0.000, 0.000, 17:28:37.322
16, -571.01, -292.98, 149.06, -2956.46, 0.000, 0.000, 0.000, 17:28:37.322
17, -611.20, -308.42, 179.97, -2935.70, 0.000, 0.000, 0.000, 17:28:37.326
18, -584.34, -297.73, 170.58, -2987.53, 0.000, 0.000, 0.000, 17:28:37.326
19, -547.10, -282.35, 154.73, -3039.68, 0.000, 0.000, 0.000, 17:28:37.337
20, -575.34, -291.93, 158.49, -3013.22, 0.000, 0.000, 0.000, 17:28:37.337
21, -603.91, -306.54, 165.66, -2889.98, 0.000, 0.000, 0.000, 17:28:37.367
22, -583.95, -299.33, 173.63, -2995.90, 0.000, 0.000, 0.000, 17:28:37.367
23, -546.96, -281.79, 163.67, -3063.50, 0.000, 0.000, 0.000, 17:28:37.367
24, -582.57, -304.22, 152.44, -2968.52, 0.000, 0.000, 0.000, 17:28:37.367
25, -607.05, -310.47, 173.31, -2896.37, 0.000, 0.000, 0.000, 17:28:37.368
26, -594.73, -302.30, 180.05, -3040.33, 0.000, 0.000, 0.000, 17:28:37.368
27, -556.35, -292.89, 152.16, -3051.43, 0.000, 0.000, 0.000, 17:28:37.369
28, -582.20, -305.32, 147.63, -2972.52, 0.000, 0.000, 0.000, 17:28:37.369
29, -634.37, -321.06, 197.21, -3068.31, 0.000, 0.000, 0.000, 17:28:37.382
30, -580.50, -292.24, 165.20, -2954.00, 0.000, 0.000, 0.000, 17:28:37.382
31, -549.80, -282.94, 149.45, -3044.31, 0.000, 0.000, 0.000, 17:28:37.397
32, -575.70, -296.42, 146.08, -3015.47, 0.000, 0.000, 0.000, 17:28:37.397
33, -610.26, -306.58, 172.40, -2931.51, 0.000, 0.000, 0.000, 17:28:37.412
34, -587.61, -293.41, 176.96, -3028.07, 0.000, 0.000, 0.000, 17:28:37.412
35, -548.10, -285.52, 168.16, -3078.13, 0.000, 0.000, 0.000, 17:28:37.412
36, -577.31, -300.52, 149.19, -2964.28, 0.000, 0.000, 0.000, 17:28:37.412
37, -612.49, -317.90, 167.77, -2937.83, 0.000, 0.000, 0.000, 17:28:37.427
38, -593.04, -295.13, 180.92, -3030.22, 0.000, 0.000, 0.000, 17:28:37.427
39, -548.65, -283.45, 154.81, -3042.87, 0.000, 0.000, 0.000, 17:28:37.442
40, -577.43, -302.98, 138.18, -3005.30, 0.000, 0.000, 0.000, 17:28:37.442
41, -606.40, -307.77, 181.54, -2937.29, 0.000, 0.000, 0.000, 17:28:37.442
42, -580.22, -295.51, 183.76, -2966.84, 0.000, 0.000, 0.000, 17:28:37.442
43, -546.82, -274.63, 156.16, -3018.17, 0.000, 0.000, 0.000, 17:28:37.457
44, -584.54, -299.10, 146.50, -3012.75, 0.000, 0.000, 0.000, 17:28:37.457
45, -612.28, -314.79, 164.42, -2896.86, 0.000, 0.000, 0.000, 17:28:37.472
46, -579.73, -294.31, 172.01, -2945.81, 0.000, 0.000, 0.000, 17:28:37.472
47, -531.82, -268.84, 161.26, -3048.31, 0.000, 0.000, 0.000, 17:28:37.472
48, -565.24, -297.58, 160.68, -2970.02, 0.000, 0.000, 0.000, 17:28:37.472
49, -612.01, -315.99, 164.01, -2933.94, 0.000, 0.000, 0.000, 17:28:37.487
50, -588.44, -299.55, 185.63, -3048.01, 0.000, 0.000, 0.000, 17:28:37.487
51, -549.99, -281.71, 146.88, -3048.01, 0.000, 0.000, 0.000, 17:28:37.502
52, -574.99, -290.41, 149.83, -2973.88, 0.000, 0.000, 0.000, 17:28:37.502
53, -619.37, -318.77, 172.45, -2952.36, 0.000, 0.000, 0.000, 17:28:37.502
54, -575.78, -290.46, 181.86, -2975.42, 0.000, 0.000, 0.000, 17:28:37.502
55, -539.21, -273.26, 163.06, -3043.91, 0.000, 0.000, 0.000, 17:28:37.517
56, -574.86, -295.93, 161.55, -2995.27, 0.000, 0.000, 0.000, 17:28:37.517
57, -607.62, -311.03, 172.26, -2918.31, 0.000, 0.000, 0.000, 17:28:37.532
58, -579.13, -298.18, 172.56, -2987.71, 0.000, 0.000, 0.000, 17:28:37.532
59, -547.06, -284.22, 145.32, -3057.97, 0.000, 0.000, 0.000, 17:28:37.533
60, -571.14, -294.54, 140.60, -2964.38, 0.000, 0.000, 0.000, 17:28:37.533
61, -609.94, -315.18, 162.14, -2921.15, 0.000, 0.000, 0.000, 17:28:37.547
62, -588.61, -300.10, 179.14, -3038.15, 0.000, 0.000, 0.000, 17:28:37.547
63, -539.92, -276.15, 148.10, -3013.55, 0.000, 0.000, 0.000, 17:28:37.562
64, -567.28, -287.63, 146.65, -2954.43, 0.000, 0.000, 0.000, 17:28:37.562
65, -608.93, -305.27, 173.19, -2923.57, 0.000, 0.000, 0.000, 17:28:37.562
66, -578.08, -291.54, 179.09, -2981.35, 0.000, 0.000, 0.000, 17:28:37.562
67, -558.34, -293.68, 144.04, -3077.89, 0.000, 0.000, 0.000, 17:28:37.577
68, -583.13, -301.01, 147.66, -3040.78, 0.000, 0.000, 0.000, 17:28:37.577
69, -607.19, -312.54, 168.14, -2906.10, 0.000, 0.000, 0.000, 17:28:37.607
70, -577.13, -291.04, 179.02, -3017.28, 0.000, 0.000, 0.000, 17:28:37.607
71, -547.34, -278.04, 162.45, -3065.10, 0.000, 0.000, 0.000, 17:28:37.607
72, -572.15, -291.50, 148.29, -2955.95, 0.000, 0.000, 0.000, 17:28:37.607
73, -601.73, -299.52, 176.17, -2902.24, 0.000, 0.000, 0.000, 17:28:37.608
74, -580.31, -297.36, 168.20, -2984.42, 0.000, 0.000, 0.000, 17:28:37.608
75, -538.52, -274.34, 146.52, -3051.71, 0.000, 0.000, 0.000, 17:28:37.609
76, -571.52, -297.45, 148.09, -2976.84, 0.000, 0.000, 0.000, 17:28:37.609
77, -624.14, -313.79, 202.67, -3035.90, 0.000, 0.000, 0.000, 17:28:37.622
78, -581.93, -299.24, 163.44, -2949.29, 0.000, 0.000, 0.000, 17:28:37.622
79, -542.28, -276.58, 136.13, -3026.67, 0.000, 0.000, 0.000, 17:28:37.637
80, -560.76, -277.08, 163.46, -2976.30, 0.000, 0.000, 0.000, 17:28:37.637
81, -604.65, -299.63, 171.79, -2895.69, 0.000, 0.000, 0.000, 17:28:37.652
82, -578.25, -292.04, 169.88, -3018.60, 0.000, 0.000, 0.000, 17:28:37.652
83, -552.03, -278.84, 154.01, -3087.10, 0.000, 0.000, 0.000, 17:28:37.652
84, -564.03, -290.38, 153.62, -2981.01, 0.000, 0.000, 0.000, 17:28:37.652
85, -607.54, -305.53, 171.65, -2940.88, 0.000, 0.000, 0.000, 17:28:37.667
86, -587.51, -296.96, 177.42, -3042.18, 0.000, 0.000, 0.000, 17:28:37.667
87, -541.12, -278.14, 148.94, -3052.91, 0.000, 0.000, 0.000, 17:28:37.682
88, -566.07, -294.45, 151.25, -2972.76, 0.000, 0.000, 0.000, 17:28:37.682
89, -601.48, -307.40, 183.65, -2921.44, 0.000, 0.000, 0.000, 17:28:37.683
90, -567.83, -284.08, 179.23, -2960.71, 0.000, 0.000, 0.000, 17:28:37.683
91, -538.66, -272.46, 157.58, -3035.52, 0.000, 0.000, 0.000, 17:28:37.697
92, -577.26, -305.16, 159.10, -3023.45, 0.000, 0.000, 0.000, 17:28:37.697
93, -607.80, -309.95, 175.20, -2906.38, 0.000, 0.000, 0.000, 17:28:37.712
94, -577.05, -293.68, 190.89, -2988.92, 0.000, 0.000, 0.000, 17:28:37.712
95, -537.46, -268.55, 170.13, -3076.25, 0.000, 0.000, 0.000, 17:28:37.712
96, -564.99, -286.70, 163.99, -2974.47, 0.000, 0.000, 0.000, 17:28:37.712
97, -611.15, -307.99, 164.79, -2936.41, 0.000, 0.000, 0.000, 17:28:37.727
98, -578.85, -284.40, 194.23, -3028.05, 0.000, 0.000, 0.000, 17:28:37.727
99, -536.41, -273.15, 164.06, -3035.78, 0.000, 0.000, 0.000, 17:28:37.742
100, -567.38, -286.94, 152.91, -2945.30, 0.000, 0.000, 0.000, 17:28:37.742
101, -610.15, -308.70, 177.42, -2927.57, 0.000, 0.000, 0.000, 17:28:37.742
102, -569.56, -288.75, 182.90, -2955.96, 0.000, 0.000, 0.000, 17:28:37.742
103, -532.61, -272.60, 159.14, -3058.44, 0.000, 0.000, 0.000, 17:28:37.757
104, -574.29, -288.53, 168.39, -3040.59, 0.000, 0.000, 0.000, 17:28:37.757
105, -607.51, -302.51, 176.26, -2894.34, 0.000, 0.000, 0.000, 17:28:37.772
106, -585.29, -297.98, 172.48, -2991.64, 0.000, 0.000, 0.000, 17:28:37.772
107, -540.89, -265.33, 176.92, -3091.69, 0.000, 0.000, 0.000, 17:28:37.772
108, -569.61, -283.80, 164.75, -2982.24, 0.000, 0.000, 0.000, 17:28:37.772
109, -603.40, -291.72, 182.46, -2901.34, 0.000, 0.000, 0.000, 17:28:37.787
110, -577.89, -287.73, 192.95, -3042.25, 0.000, 0.000, 0.000, 17:28:37.787
111, -536.74, -271.92, 163.04, -3061.99, 0.000, 0.000, 0.000, 17:28:37.802
112, -564.37, -278.46, 157.19, -2995.99, 0.000, 0.000, 0.000, 17:28:37.802
113, -612.82, -302.74, 184.18, -2954.33, 0.000, 0.000, 0.000, 17:28:37.802
114, -580.37, -290.23, 169.14, -2981.58, 0.000, 0.000, 0.000, 17:28:37.802
115, -535.57, -271.23, 146.85, -3074.91, 0.000, 0.000, 0.000, 17:28:37.817
116, -573.43, -292.50, 162.15, -3032.50, 0.000, 0.000, 0.000, 17:28:37.817
117, -598.55, -299.83, 175.24, -2907.22, 0.000, 0.000, 0.000, 17:28:37.832
118, -583.50, -292.23, 166.64, -3007.78, 0.000, 0.000, 0.000, 17:28:37.832
119, -533.26, -270.40, 160.91, -3059.61, 0.000, 0.000, 0.000, 17:28:37.832
120, -559.75, -283.36, 149.41, -2969.42, 0.000, 0.000, 0.000, 17:28:37.832
121, -600.02, -297.51, 175.23, -2941.65, 0.000, 0.000, 0.000, 17:28:37.847
122, -583.40, -293.65, 176.65, -3070.57, 0.000, 0.000, 0.000, 17:28:37.847
123, -547.19, -281.95, 147.34, -3089.15, 0.000, 0.000, 0.000, 17:28:37.862
124, -565.79, -285.40, 162.20, -2999.10, 0.000, 0.000, 0.000, 17:28:37.862
125, -606.43, -299.94, 183.55, -2973.84, 0.000, 0.000, 0.000, 17:28:37.862
126, -570.65, -285.17, 174.77, -2966.36, 0.000, 0.000, 0.000, 17:28:37.862
127, -533.29, -268.39, 150.60, -3060.40, 0.000, 0.000, 0.000, 17:28:37.877
128, -573.99, -294.88, 162.05, -3027.74, 0.000, 0.000, 0.000, 17:28:37.877
129, -602.32, -307.06, 174.51, -2914.85, 0.000, 0.000, 0.000, 17:28:37.892
130, -574.45, -287.21, 171.29, -2982.57, 0.000, 0.000, 0.000, 17:28:37.892
131, -542.01, -275.54, 161.49, -3066.87, 0.000, 0.000, 0.000, 17:28:37.892
132, -559.58, -288.14, 161.45, -2940.16, 0.000, 0.000, 0.000, 17:28:37.892
133, -605.73, -308.53, 174.93, -2923.52, 0.000, 0.000, 0.000, 17:28:37.922
134, -589.74, -298.43, 190.27, -3049.31, 0.000, 0.000, 0.000, 17:28:37.922
135, -540.39, -284.92, 151.53, -3048.99, 0.000, 0.000, 0.000, 17:28:37.922
136, -562.61, -289.34, 158.96, -2978.25, 0.000, 0.000, 0.000, 17:28:37.922
137, -605.64, -307.46, 172.21, -2906.31, 0.000, 0.000, 0.000, 17:28:37.923
138, -572.84, -288.71, 178.12, -2990.21, 0.000, 0.000, 0.000, 17:28:37.923
139, -537.47, -272.02, 164.84, -3047.65, 0.000, 0.000, 0.000, 17:28:37.937
140, -573.87, -291.05, 175.89, -3068.48, 0.000, 0.000, 0.000, 17:28:37.937
141, -594.70, -300.87, 175.49, -2896.41, 0.000, 0.000, 0.000, 17:28:37.952
142, -569.06, -286.53, 183.98, -2966.85, 0.000, 0.000, 0.000, 17:28:37.952
143, -535.18, -269.01, 166.53, -3057.39, 0.000, 0.000, 0.000, 17:28:37.952
144, -556.16, -280.31, 157.48, -2960.43, 0.000, 0.000, 0.000, 17:28:37.952
145, -591.97, -295.09, 166.45, -2920.83, 0.000, 0.000, 0.000, 17:28:37.982
146, -563.17, -270.97, 183.73, -3043.70, 0.000, 0.000, 0.000, 17:28:37.982
147, -516.01, -247.73, 156.37, -3038.70, 0.000, 0.000, 0.000, 17:28:37.982
148, -524.23, -243.15, 157.56, -2944.34, 0.000, 0.000, 0.000, 17:28:37.982
149, -561.80, -257.01, 181.77, -2867.94, 0.000, 0.000, 0.000, 17:28:37.983
150, -528.96, -236.87, 189.28, -2963.92, 0.000, 0.000, 0.000, 17:28:37.983
151, -500.70, -231.13, 160.98, -3027.42, 0.000, 0.000, 0.000, 17:28:38.003
152, -544.09, -258.72, 166.53, -3026.22, 0.000, 0.000, 0.000, 17:28:38.004
153, -556.51, -260.25, 174.97, -2871.18, 0.000, 0.000, 0.000, 17:28:38.011
154, -546.95, -251.49, 191.39, -2976.87, 0.000, 0.000, 0.000, 17:28:38.012
155, -520.83, -248.18, 156.93, -3041.90, 0.000, 0.000, 0.000, 17:28:38.012
156, -548.26, -268.73, 153.28, -2950.09, 0.000, 0.000, 0.000, 17:28:38.012
157, -588.82, -284.36, 169.50, -2920.58, 0.000, 0.000, 0.000, 17:28:38.027
158, -577.45, -287.28, 179.71, -3026.50, 0.000, 0.000, 0.000, 17:28:38.027
159, -537.12, -275.17, 144.28, -3019.04, 0.000, 0.000, 0.000, 17:28:38.042
160, -559.30, -286.67, 161.68, -2976.24, 0.000, 0.000, 0.000, 17:28:38.042
161, -601.72, -299.51, 190.42, -2954.29, 0.000, 0.000, 0.000, 17:28:38.042
162, -591.64, -305.30, 184.55, -2998.54, 0.000, 0.000, 0.000, 17:28:38.042
163, -551.17, -292.04, 160.23, -3083.01, 0.000, 0.000, 0.000, 17:28:38.057
164, -586.78, -310.74, 157.66, -3049.32, 0.000, 0.000, 0.000, 17:28:38.057
165, -614.09, -317.41, 186.50, -2939.30, 0.000, 0.000, 0.000, 17:28:38.072
166, -595.09, -305.58, 180.58, -2996.57, 0.000, 0.000, 0.000, 17:28:38.072
167, -553.02, -292.93, 164.38, -3063.94, 0.000, 0.000, 0.000, 17:28:38.072
168, -586.25, -309.12, 157.58, -2946.46, 0.000, 0.000, 0.000, 17:28:38.072
169, -615.36, -315.35, 173.51, -2909.54, 0.000, 0.000, 0.000, 17:28:38.087
170, -597.00, -312.39, 197.16, -3011.51, 0.000, 0.000, 0.000, 17:28:38.087
171, -549.35, -288.35, 160.93, -3045.56, 0.000, 0.000, 0.000, 17:28:38.102
172, -576.19, -304.98, 150.50, -2963.72, 0.000, 0.000, 0.000, 17:28:38.102
173, -623.95, -323.84, 184.05, -2951.89, 0.000, 0.000, 0.000, 17:28:38.102
174, -597.82, -314.08, 174.22, -2997.40, 0.000, 0.000, 0.000, 17:28:38.102
175, -550.48, -286.90, 167.15, -3049.25, 0.000, 0.000, 0.000, 17:28:38.117
176, -587.05, -306.96, 164.44, -3006.09, 0.000, 0.000, 0.000, 17:28:38.117
177, -618.01, -315.65, 179.17, -2876.50, 0.000, 0.000, 0.000, 17:28:38.132
178, -584.82, -301.03, 179.63, -2969.31, 0.000, 0.000, 0.000, 17:28:38.132
179, -550.46, -285.95, 157.26, -3040.02, 0.000, 0.000, 0.000, 17:28:38.132
180, -574.66, -297.78, 157.05, -2958.18, 0.000, 0.000, 0.000, 17:28:38.132
181, -614.56, -317.78, 181.81, -2906.49, 0.000, 0.000, 0.000, 17:28:38.147
182, -589.86, -303.64, 190.29, -3051.32, 0.000, 0.000, 0.000, 17:28:38.147
183, -552.99, -295.99, 155.78, -3016.51, 0.000, 0.000, 0.000, 17:28:38.162
184, -574.21, -298.59, 153.61, -2946.85, 0.000, 0.000, 0.000, 17:28:38.162
185, -613.15, -310.90, 182.78, -2931.05, 0.000, 0.000, 0.000, 17:28:38.162
186, -578.86, -291.46, 176.49, -2963.92, 0.000, 0.000, 0.000, 17:28:38.162
187, -543.55, -280.26, 153.02, -3077.54, 0.000, 0.000, 0.000, 17:28:38.177
188, -573.96, -293.46, 162.64, -3067.65, 0.000, 0.000, 0.000, 17:28:38.177
189, -610.52, -311.76, 177.29, -2921.49, 0.000, 0.000, 0.000, 17:28:38.192
190, -581.59, -295.61, 196.49, -3012.11, 0.000, 0.000, 0.000, 17:28:38.192
191, -551.08, -281.98, 165.63, -3088.91, 0.000, 0.000, 0.000, 17:28:38.192
192, -574.93, -296.87, 151.77, -2961.93, 0.000, 0.000, 0.000, 17:28:38.192
193, -607.12, -312.40, 176.27, -2917.13, 0.000, 0.000, 0.000, 17:28:38.207
194, -589.08, -296.31, 187.35, -3028.88, 0.000, 0.000, 0.000, 17:28:38.207
195, -546.94, -282.63, 153.84, -3046.52, 0.000, 0.000, 0.000, 17:28:38.237
196, -573.84, -291.80, 158.50, -2982.50, 0.000, 0.000, 0.000, 17:28:38.237
197, -600.70, -298.46, 188.69, -2940.43, 0.000, 0.000, 0.000, 17:28:38.237
198, -571.05, -283.71, 184.02, -2953.78, 0.000, 0.000, 0.000, 17:28:38.237
199, -545.83, -275.24, 153.35, -3015.94, 0.000, 0.000, 0.000, 17:28:38.238
200, -568.30, -288.50, 153.49, -2941.60, 0.000, 0.000, 0.000, 17:28:38.238
0, -607.28, -305.59, 161.89, -2903.55, 0.000, 0.000, 0.000, 17:28:38.239
1, -575.91, -289.44, 177.15, -2982.36, 0.000, 0.000, 0.000, 17:28:38.252
2, -557.53, -282.56, 173.78, -3185.10, 0.000, 0.000, 0.000, 17:28:38.252
3, -568.64, -293.30, 139.89, -2983.23, 0.000, 0.000, 0.000, 17:28:38.266
4, -599.99, -301.66, 175.74, -2916.68, 0.000, 0.000, 0.000, 17:28:38.267
5, -580.17, -292.31, 176.57, -3024.23, 0.000, 0.000, 0.000, 17:28:38.267
6, -533.30, -275.09, 150.96, -3046.25, 0.000, 0.000, 0.000, 17:28:38.267
7, -555.59, -282.12, 156.16, -2984.83, 0.000, 0.000, 0.000, 17:28:38.282
8, -610.37, -308.58, 181.76, -2984.11, 0.000, 0.000, 0.000, 17:28:38.282
9, -577.92, -289.46, 177.93, -3000.73, 0.000, 0.000, 0.000, 17:28:38.297
10, -530.38, -270.60, 156.43, -3078.85, 0.000, 0.000, 0.000, 17:28:38.297
11, -552.84, -280.49, 162.20, -3004.47, 0.000, 0.000, 0.000, 17:28:38.298
12, -591.05, -291.06, 177.97, -2909.08, 0.000, 0.000, 0.000, 17:28:38.298
13, -570.76, -278.78, 182.04, -3014.40, 0.000, 0.000, 0.000, 17:28:38.312
14, -526.70, -259.99, 174.77, -3111.50, 0.000, 0.000, 0.000, 17:28:38.312
15, -545.29, -270.86, 150.74, -2960.54, 0.000, 0.000, 0.000, 17:28:38.327
16, -578.16, -280.27, 179.64, -2886.59, 0.000, 0.000, 0.000, 17:28:38.327
17, -557.95, -268.83, 179.58, -3001.19, 0.000, 0.000, 0.000, 17:28:38.327
18, -509.37, -247.18, 159.95, -3062.26, 0.000, 0.000, 0.000, 17:28:38.327
19, -528.45, -254.07, 149.75, -2986.22, 0.000, 0.000, 0.000, 17:28:38.342
20, -567.61, -263.23, 180.21, -2974.32, 0.000, 0.000, 0.000, 17:28:38.342
21, -522.29, -229.08, 185.56, -2993.89, 0.000, 0.000, 0.000, 17:28:38.357
22, -483.89, -214.23, 164.62, -3035.06, 0.000, 0.000, 0.000, 17:28:38.357
23, -496.51, -222.39, 158.50, -2989.80, 0.000, 0.000, 0.000, 17:28:38.357
24, -527.42, -228.71, 188.61, -2888.88, 0.000, 0.000, 0.000, 17:28:38.357
25, -508.35, -213.28, 180.26, -3003.54, 0.000, 0.000, 0.000, 17:28:38.372
26, -449.84, -184.92, 169.69, -3097.18, 0.000, 0.000, 0.000, 17:28:38.372
27, -474.21, -200.31, 153.55, -2944.29, 0.000, 0.000, 0.000, 17:28:38.386
28, -510.57, -204.76, 184.54, -2884.04, 0.000, 0.000, 0.000, 17:28:38.387
29, -476.34, -177.30, 185.92, -2980.50, 0.000, 0.000, 0.000, 17:28:38.387
30, -431.06, -162.02, 144.20, -3021.19, 0.000, 0.000, 0.000, 17:28:38.387
31, -456.30, -176.27, 147.53, -2960.96, 0.000, 0.000, 0.000, 17:28:38.402
32, -481.21, -188.07, 190.30, -2954.04, 0.000, 0.000, 0.000, 17:28:38.402
33, -444.73, -167.44, 194.88, -2960.90, 0.000, 0.000, 0.000, 17:28:38.417
34, -402.34, -151.96, 162.92, -3019.24, 0.000, 0.000, 0.000, 17:28:38.417
35, -421.92, -157.54, 159.85, -2969.06, 0.000, 0.000, 0.000, 17:28:38.417
36, -449.24, -164.14, 183.01, -2885.36, 0.000, 0.000, 0.000, 17:28:38.417
37, -411.54, -147.01, 184.01, -2957.44, 0.000, 0.000, 0.000, 17:28:38.432
38, -381.25, -140.39, 167.47, -3077.37, 0.000, 0.000, 0.000, 17:28:38.432
39, -410.27, -163.22, 158.51, -2947.13, 0.000, 0.000, 0.000, 17:28:38.446
40, -467.83, -189.07, 186.82, -2898.44, 0.000, 0.000, 0.000, 17:28:38.447
41, -445.81, -169.55, 198.43, -2970.35, 0.000, 0.000, 0.000, 17:28:38.447
42, -429.99, -178.17, 157.12, -3040.60, 0.000, 0.000, 0.000, 17:28:38.447
43, -469.12, -196.20, 163.66, -2973.72, 0.000, 0.000, 0.000, 17:28:38.462
44, -531.89, -236.73, 194.96, -2948.83, 0.000, 0.000, 0.000, 17:28:38.462
45, -520.87, -238.79, 184.69, -2978.27, 0.000, 0.000, 0.000, 17:28:38.477
46, -497.95, -235.44, 160.15, -3020.22, 0.000, 0.000, 0.000, 17:28:38.477
47, -546.06, -270.59, 159.47, -2958.06, 0.000, 0.000, 0.000, 17:28:38.477
48, -599.13, -301.38, 177.13, -2849.99, 0.000, 0.000, 0.000, 17:28:38.477
49, -581.78, -300.82, 177.05, -3007.34, 0.000, 0.000, 0.000, 17:28:38.492
50, -569.17, -307.75, 158.15, -3099.94, 0.000, 0.000, 0.000, 17:28:38.492
51, -593.48, -325.94, 143.36, -2956.88, 0.000, 0.000, 0.000, 17:28:38.507
52, -656.75, -362.23, 167.60, -2947.75, 0.000, 0.000, 0.000, 17:28:38.507
53, -626.49, -337.18, 188.42, -2994.67, 0.000, 0.000, 0.000, 17:28:38.507
54, -598.57, -336.14, 156.26, -3092.22, 0.000, 0.000, 0.000, 17:28:38.507
55, -646.10, -364.78, 156.39, -3052.81, 0.000, 0.000, 0.000, 17:28:38.522
56, -688.05, -380.70, 186.06, -2964.72, 0.000, 0.000, 0.000, 17:28:38.522
57, -648.31, -361.81, 174.08, -2981.75, 0.000, 0.000, 0.000, 17:28:38.536
58, -608.13, -348.53, 154.95, -3051.56, 0.000, 0.000, 0.000, 17:28:38.537
59, -636.92, -358.70, 155.71, -2997.57, 0.000, 0.000, 0.000, 17:28:38.537
60, -680.30, -385.32, 165.01, -2932.43, 0.000, 0.000, 0.000, 17:28:38.537
61, -657.24, -372.84, 173.09, -3007.89, 0.000, 0.000, 0.000, 17:28:38.567
62, -625.01, -359.26, 156.37, -3105.22, 0.000, 0.000, 0.000, 17:28:38.567
63, -640.87, -365.88, 147.25, -2962.92, 0.000, 0.000, 0.000, 17:28:38.567
64, -674.87, -378.44, 168.60, -2925.38, 0.000, 0.000, 0.000, 17:28:38.567
65, -647.97, -359.96, 177.70, -2968.46, 0.000, 0.000, 0.000, 17:28:38.568
66, -606.15, -337.52, 155.21, -3032.43, 0.000, 0.000, 0.000, 17:28:38.568
67, -640.36, -357.34, 151.63, -2964.13, 0.000, 0.000, 0.000, 17:28:38.597
68, -684.14, -371.13, 194.56, -2984.89, 0.000, 0.000, 0.000, 17:28:38.597
69, -640.17, -348.62, 179.73, -2968.49, 0.000, 0.000, 0.000, 17:28:38.597
70, -601.49, -331.54, 161.68, -3028.63, 0.000, 0.000, 0.000, 17:28:38.597
71, -624.50, -347.63, 159.81, -2972.13, 0.000, 0.000, 0.000, 17:28:38.598
72, -667.69, -363.13, 171.55, -2890.34, 0.000, 0.000, 0.000, 17:28:38.598
73, -636.29, -338.82, 185.69, -3000.27, 0.000, 0.000, 0.000, 17:28:38.612
74, -617.77, -337.52, 181.02, -3159.48, 0.000, 0.000, 0.000, 17:28:38.612
75, -627.56, -345.44, 147.78, -2983.21, 0.000, 0.000, 0.000, 17:28:38.627
76, -657.73, -351.16, 183.63, -2911.76, 0.000, 0.000, 0.000, 17:28:38.627
77, -633.52, -338.95, 182.01, -3025.65, 0.000, 0.000, 0.000, 17:28:38.627
78, -594.23, -327.67, 155.55, -3044.19, 0.000, 0.000, 0.000, 17:28:38.627
79, -615.10, -336.20, 146.26, -2976.67, 0.000, 0.000, 0.000, 17:28:38.642
80, -658.05, -347.39, 187.35, -2949.14, 0.000, 0.000, 0.000, 17:28:38.642
81, -633.74, -338.39, 173.62, -2989.26, 0.000, 0.000, 0.000, 17:28:38.657
82, -586.01, -315.88, 163.42, -3040.47, 0.000, 0.000, 0.000, 17:28:38.657
83, -616.81, -332.65, 165.99, -2977.73, 0.000, 0.000, 0.000, 17:28:38.657
84, -646.96, -346.68, 180.66, -2896.11, 0.000, 0.000, 0.000, 17:28:38.657
85, -625.83, -330.56, 178.05, -2980.16, 0.000, 0.000, 0.000, 17:28:38.672
86, -582.23, -313.61, 166.22, -3079.22, 0.000, 0.000, 0.000, 17:28:38.672
87, -605.84, -321.85, 153.63, -2968.18, 0.000, 0.000, 0.000, 17:28:38.687
88, -638.97, -336.55, 174.11, -2901.54, 0.000, 0.000, 0.000, 17:28:38.687
89, -609.88, -322.27, 189.30, -3001.19, 0.000, 0.000, 0.000, 17:28:38.687
90, -565.31, -300.00, 161.62, -3034.86, 0.000, 0.000, 0.000, 17:28:38.687
91, -596.00, -315.11, 163.44, -2978.35, 0.000, 0.000, 0.000, 17:28:38.702
92, -648.06, -338.56, 186.19, -2974.86, 0.000, 0.000, 0.000, 17:28:38.702
93, -598.97, -316.14, 186.87, -2987.74, 0.000, 0.000, 0.000, 17:28:38.717
94, -571.26, -306.78, 155.68, -3068.62, 0.000, 0.000, 0.000, 17:28:38.717
95, -597.50, -320.17, 157.08, -3000.59, 0.000, 0.000, 0.000, 17:28:38.718
96, -622.81, -320.10, 177.45, -2880.87, 0.000, 0.000, 0.000, 17:28:38.718
97, -597.23, -305.95, 178.30, -2976.81, 0.000, 0.000, 0.000, 17:28:38.747
98, -568.89, -302.53, 161.69, -3095.14, 0.000, 0.000, 0.000, 17:28:38.747
99, -589.45, -305.07, 151.17, -2960.63, 0.000, 0.000, 0.000, 17:28:38.747
100, -625.84, -312.40, 172.59, -2918.40, 0.000, 0.000, 0.000, 17:28:38.747
101, -594.69, -300.72, 193.26, -3032.63, 0.000, 0.000, 0.000, 17:28:38.748
102, -553.30, -279.71, 164.31, -3039.41, 0.000, 0.000, 0.000, 17:28:38.748
103, -580.54, -296.48, 150.41, -2983.70, 0.000, 0.000, 0.000, 17:28:38.762
104, -624.72, -318.04, 196.69, -3006.91, 0.000, 0.000, 0.000, 17:28:38.762
105, -593.98, -311.80, 162.12, -2995.45, 0.000, 0.000, 0.000, 17:28:38.777
106, -534.23, -279.22, 155.97, -3033.81, 0.000, 0.000, 0.000, 17:28:38.777
107, -569.81, -301.10, 160.95, -2977.94, 0.000, 0.000, 0.000, 17:28:38.777
108, -601.46, -306.63, 182.97, -2899.99, 0.000, 0.000, 0.000, 17:28:38.777
109, -576.52, -296.55, 181.96, -2984.79, 0.000, 0.000, 0.000, 17:28:38.792
110, -547.54, -281.06, 162.84, -3102.23, 0.000, 0.000, 0.000, 17:28:38.792
111, -567.86, -292.77, 151.42, -2954.67, 0.000, 0.000, 0.000, 17:28:38.807
112, -601.67, -301.28, 182.19, -2902.63, 0.000, 0.000, 0.000, 17:28:38.807
113, -583.47, -296.99, 179.14, -3024.94, 0.000, 0.000, 0.000, 17:28:38.807
114, -544.39, -279.70, 145.96, -3058.36, 0.000, 0.000, 0.000, 17:28:38.807
115, -562.14, -284.09, 154.87, -2980.06, 0.000, 0.000, 0.000, 17:28:38.822
116, -614.87, -302.78, 181.55, -2972.55, 0.000, 0.000, 0.000, 17:28:38.822
117, -576.79, -292.71, 170.76, -2964.01, 0.000, 0.000, 0.000, 17:28:38.837
118, -535.62, -273.31, 153.30, -3024.35, 0.000, 0.000, 0.000, 17:28:38.837
119, -575.31, -291.84, 152.80, -2992.11, 0.000, 0.000, 0.000, 17:28:38.837
120, -606.91, -301.38, 174.91, -2878.26, 0.000, 0.000, 0.000, 17:28:38.837
121, -567.02, -280.88, 187.39, -2961.12, 0.000, 0.000, 0.000, 17:28:38.852
122, -544.18, -275.32, 163.69, -3090.36, 0.000, 0.000, 0.000, 17:28:38.852
123, -563.44, -285.25, 162.69, -2984.04, 0.000, 0.000, 0.000, 17:28:38.882
124, -601.02, -301.99, 190.37, -2901.04, 0.000, 0.000, 0.000, 17:28:38.882
125, -569.51, -285.02, 182.18, -3001.41, 0.000, 0.000, 0.000, 17:28:38.882
126, -530.48, -267.39, 155.96, -3053.15, 0.000, 0.000, 0.000, 17:28:38.882
127, -570.70, -290.82, 143.13, -3010.15, 0.000, 0.000, 0.000, 17:28:38.883
128, -594.39, -289.81, 186.31, -2919.42, 0.000, 0.000, 0.000, 17:28:38.883
129, -567.59, -281.25, 188.13, -3000.50, 0.000, 0.000, 0.000, 17:28:38.884
130, -533.36, -262.02, 159.74, -3068.44, 0.000, 0.000, 0.000, 17:28:38.884
131, -574.72, -285.21, 175.20, -3118.37, 0.000, 0.000, 0.000, 17:28:38.897
132, -584.05, -289.71, 173.18, -2901.31, 0.000, 0.000, 0.000, 17:28:38.897
133, -567.65, -276.28, 174.47, -3001.99, 0.000, 0.000, 0.000, 17:28:38.912
134, -527.50, -263.53, 165.05, -3073.02, 0.000, 0.000, 0.000, 17:28:38.912
135, -554.55, -276.50, 156.14, -2957.41, 0.000, 0.000, 0.000, 17:28:38.927
136, -595.32, -293.07, 178.39, -2901.73, 0.000, 0.000, 0.000, 17:28:38.927
137, -562.75, -277.08, 195.09, -2992.29, 0.000, 0.000, 0.000, 17:28:38.927
138, -525.77, -262.79, 156.20, -3013.48, 0.000, 0.000, 0.000, 17:28:38.927
139, -565.00, -287.01, 155.93, -2960.47, 0.000, 0.000, 0.000, 17:28:38.942
140, -595.63, -294.07, 186.11, -2928.13, 0.000, 0.000, 0.000, 17:28:38.942
141, -564.46, -276.29, 186.11, -2940.89, 0.000, 0.000, 0.000, 17:28:38.957
142, -541.26, -279.23, 156.66, -3029.70, 0.000, 0.000, 0.000, 17:28:38.957
143, -560.90, -280.97, 166.94, -2967.09, 0.000, 0.000, 0.000, 17:28:38.957
144, -596.06, -294.73, 182.52, -2916.55, 0.000, 0.000, 0.000, 17:28:38.957
145, -576.87, -286.15, 178.01, -2994.28, 0.000, 0.000, 0.000, 17:28:38.972
146, -540.99, -274.04, 164.66, -3105.29, 0.000, 0.000, 0.000, 17:28:38.972
147, -568.62, -289.98, 161.10, -2990.28, 0.000, 0.000, 0.000, 17:28:38.987
148, -597.56, -292.28, 173.17, -2909.97, 0.000, 0.000, 0.000, 17:28:38.987
149, -570.36, -286.68, 172.92, -3005.94, 0.000, 0.000, 0.000, 17:28:38.987
150, -529.83, -270.13, 158.15, -3046.03, 0.000, 0.000, 0.000, 17:28:38.987
151, -560.73, -282.77, 156.09, -2989.05, 0.000, 0.000, 0.000, 17:28:39.002
152, -608.96, -306.77, 190.46, -2990.52, 0.000, 0.000, 0.000, 17:28:39.002
153, -577.68, -289.37, 186.06, -2997.36, 0.000, 0.000, 0.000, 17:28:39.017
154, -541.55, -278.16, 165.21, -3056.21, 0.000, 0.000, 0.000, 17:28:39.017
155, -574.66, -291.02, 158.49, -3002.43, 0.000, 0.000, 0.000, 17:28:39.017
156, -594.84, -294.52, 180.81, -2901.84, 0.000, 0.000, 0.000, 17:28:39.017
157, -580.97, -292.13, 183.21, -3022.53, 0.000, 0.000, 0.000, 17:28:39.032
158, -545.48, -274.05, 169.10, -3133.26, 0.000, 0.000, 0.000, 17:28:39.032
159, -567.91, -288.31, 153.63, -2973.65, 0.000, 0.000, 0.000, 17:28:39.047
160, -599.57, -305.00, 178.95, -2922.55, 0.000, 0.000, 0.000, 17:28:39.047
161, -582.59, -290.21, 182.20, -3010.76, 0.000, 0.000, 0.000, 17:28:39.047
162, -538.28, -266.82, 153.93, -3029.47, 0.000, 0.000, 0.000, 17:28:39.047
163, -569.60, -292.16, 148.52, -2961.13, 0.000, 0.000, 0.000, 17:28:39.062
164, -607.81, -302.75, 178.75, -2947.01, 0.000, 0.000, 0.000, 17:28:39.062
165, -579.30, -292.09, 175.74, -2986.72, 0.000, 0.000, 0.000, 17:28:39.077
166, -540.48, -278.01, 153.83, -3052.80, 0.000, 0.000, 0.000, 17:28:39.077
167, -569.97, -294.16, 148.20, -2981.01, 0.000, 0.000, 0.000, 17:28:39.077
168, -609.12, -309.10, 172.44, -2895.41, 0.000, 0.000, 0.000, 17:28:39.077
169, -581.05, -294.69, 174.77, -2978.67, 0.000, 0.000, 0.000, 17:28:39.092
170, -543.61, -274.76, 163.07, -3087.10, 0.000, 0.000, 0.000, 17:28:39.092
171, -564.67, -289.17, 152.15, -2942.09, 0.000, 0.000, 0.000, 17:28:39.107
172, -608.06, -307.69, 164.78, -2919.98, 0.000, 0.000, 0.000, 17:28:39.107
173, -582.87, -293.81, 179.58, -3012.36, 0.000, 0.000, 0.000, 17:28:39.107
174, -544.54, -280.00, 145.19, -3037.89, 0.000, 0.000, 0.000, 17:28:39.107
175, -567.91, -285.65, 155.98, -2969.27, 0.000, 0.000, 0.000, 17:28:39.122
176, -616.73, -311.58, 177.18, -2957.49, 0.000, 0.000, 0.000, 17:28:39.122
177, -582.86, -295.97, 158.79, -2977.20, 0.000, 0.000, 0.000, 17:28:39.137
178, -542.09, -282.70, 151.62, -3049.64, 0.000, 0.000, 0.000, 17:28:39.137
179, -576.97, -295.91, 155.39, -3006.30, 0.000, 0.000, 0.000, 17:28:39.137
180, -608.83, -306.11, 174.88, -2891.76, 0.000, 0.000, 0.000, 17:28:39.137
181, -584.65, -295.72, 182.71, -3004.86, 0.000, 0.000, 0.000, 17:28:39.152
182, -558.34, -283.71, 170.72, -3096.15, 0.000, 0.000, 0.000, 17:28:39.152
183, -576.07, -299.90, 144.54, -2952.80, 0.000, 0.000, 0.000, 17:28:39.167
184, -610.33, -311.49, 166.49, -2914.46, 0.000, 0.000, 0.000, 17:28:39.167
185, -580.90, -296.42, 186.22, -3005.14, 0.000, 0.000, 0.000, 17:28:39.167
186, -545.22, -286.97, 153.40, -3052.83, 0.000, 0.000, 0.000, 17:28:39.167
187, -568.41, -290.65, 142.63, -2972.74, 0.000, 0.000, 0.000, 17:28:39.197
188, -618.94, -314.22, 177.90, -2965.82, 0.000, 0.000, 0.000, 17:28:39.197
189, -575.47, -288.48, 178.25, -2960.80, 0.000, 0.000, 0.000, 17:28:39.197
190, -541.35, -271.31, 145.99, -3068.08, 0.000, 0.000, 0.000, 17:28:39.197
191, -565.04, -284.53, 155.94, -2974.18, 0.000, 0.000, 0.000, 17:28:39.199
192, -591.96, -287.56, 171.63, -2884.99, 0.000, 0.000, 0.000, 17:28:39.199
193, -565.63, -280.61, 174.00, -2952.14, 0.000, 0.000, 0.000, 17:28:39.212
194, -535.06, -263.35, 167.83, -3146.85, 0.000, 0.000, 0.000, 17:28:39.212
195, -542.60, -266.64, 150.86, -2987.26, 0.000, 0.000, 0.000, 17:28:39.227
196, -571.47, -266.19, 184.63, -2908.03, 0.000, 0.000, 0.000, 17:28:39.227
197, -539.79, -254.49, 195.02, -3003.36, 0.000, 0.000, 0.000, 17:28:39.227
198, -487.18, -222.79, 166.62, -3011.87, 0.000, 0.000, 0.000, 17:28:39.227
199, -502.41, -234.96, 146.14, -2976.01, 0.000, 0.000, 0.000, 17:28:39.242
200, -535.78, -238.36, 193.10, -2949.17, 0.000, 0.000, 0.000, 17:28:39.242
0, -498.83, -204.71, 177.15, -2980.83, 0.000, 0.000, 0.000, 17:28:39.242
1, -449.13, -171.69, 146.16, -3054.75, 0.000, 0.000, 0.000, 17:28:39.257
2, -449.70, -172.82, 169.61, -3019.26, 0.000, 0.000, 0.000, 17:28:39.257
3, -475.98, -183.27, 186.50, -2870.62, 0.000, 0.000, 0.000, 17:28:39.272
4, -429.98, -153.61, 185.33, -2948.09, 0.000, 0.000, 0.000, 17:28:39.272
5, -386.73, -138.75, 156.73, -3036.84, 0.000, 0.000, 0.000, 17:28:39.273
6, -407.26, -135.84, 151.50, -2931.91, 0.000, 0.000, 0.000, 17:28:39.273
7, -442.32, -147.59, 177.85, -2910.39, 0.000, 0.000, 0.000, 17:28:39.287
8, -437.45, -151.35, 183.49, -3041.34, 0.000, 0.000, 0.000, 17:28:39.287
9, -369.05, -116.93, 154.02, -3032.32, 0.000, 0.000, 0.000, 17:28:39.302
10, -401.52, -138.19, 154.84, -2966.31, 0.000, 0.000, 0.000, 17:28:39.302
11, -465.75, -174.39, 196.27, -2907.89, 0.000, 0.000, 0.000, 17:28:39.302
12, -431.75, -143.00, 181.51, -2948.55, 0.000, 0.000, 0.000, 17:28:39.302
13, -404.74, -142.73, 154.79, -3054.37, 0.000, 0.000, 0.000, 17:28:39.317
14, -455.95, -161.02, 164.47, -3026.53, 0.000, 0.000, 0.000, 17:28:39.317
15, -496.78, -179.46, 171.59, -2910.66, 0.000, 0.000, 0.000, 17:28:39.332
16, -463.04, -169.78, 177.51, -2991.93, 0.000, 0.000, 0.000, 17:28:39.332
17, -434.46, -163.56, 168.25, -3052.89, 0.000, 0.000, 0.000, 17:28:39.332
18, -478.58, -193.66, 167.37, -2974.34, 0.000, 0.000, 0.000, 17:28:39.332
19, -526.99, -214.11, 159.96, -2949.86, 0.000, 0.000, 0.000, 17:28:39.347
20, -509.11, -200.11, 174.05, -3059.08, 0.000, 0.000, 0.000, 17:28:39.347
21, -479.04, -200.77, 144.86, -3054.58, 0.000, 0.000, 0.000, 17:28:39.362
22, -496.18, -210.58, 159.81, -2982.78, 0.000, 0.000, 0.000, 17:28:39.362
23, -543.42, -246.89, 173.39, -2936.23, 0.000, 0.000, 0.000, 17:28:39.363
24, -522.88, -231.30, 170.87, -2999.46, 0.000, 0.000, 0.000, 17:28:39.363
25, -479.05, -204.52, 155.02, -3046.31, 0.000, 0.000, 0.000, 17:28:39.377
26, -520.01, -227.91, 141.58, -3007.54, 0.000, 0.000, 0.000, 17:28:39.377
27, -565.36, -243.04, 155.61, -2882.28, 0.000, 0.000, 0.000, 17:28:39.392
28, -547.16, -247.22, 173.93, -2989.95, 0.000, 0.000, 0.000, 17:28:39.392
29, -497.54, -225.70, 156.95, -3049.22, 0.000, 0.000, 0.000, 17:28:39.392
30, -528.58, -252.35, 148.07, -2964.38, 0.000, 0.000, 0.000, 17:28:39.392
31, -596.20, -285.16, 164.01, -2914.86, 0.000, 0.000, 0.000, 17:28:39.407
32, -567.93, -256.25, 174.69, -3040.40, 0.000, 0.000, 0.000, 17:28:39.407
33, -538.98, -250.07, 133.07, -3058.44, 0.000, 0.000, 0.000, 17:28:39.422
34, -591.82, -289.78, 138.61, -2983.97, 0.000, 0.000, 0.000, 17:28:39.422
35, -624.72, -313.75, 166.40, -2931.86, 0.000, 0.000, 0.000, 17:28:39.424
36, -609.92, -312.40, 165.80, -2990.37, 0.000, 0.000, 0.000, 17:28:39.425
37, -585.82, -316.47, 144.94, -3068.04, 0.000, 0.000, 0.000, 17:28:39.437
38, -648.21, -349.51, 142.25, -3053.43, 0.000, 0.000, 0.000, 17:28:39.437
39, -685.89, -365.28, 177.13, -2938.21, 0.000, 0.000, 0.000, 17:28:39.452
40, -667.87, -374.23, 162.39, -3027.45, 0.000, 0.000, 0.000, 17:28:39.452
41, -639.91, -367.08, 144.75, -3108.69, 0.000, 0.000, 0.000, 17:28:39.452
42, -678.12, -394.70, 129.75, -2994.47, 0.000, 0.000, 0.000, 17:28:39.452
43, -728.26, -425.70, 162.95, -2919.68, 0.000, 0.000, 0.000, 17:28:39.467
44, -695.46, -410.53, 178.17, -3051.56, 0.000, 0.000, 0.000, 17:28:39.467
45, -680.48, -418.93, 143.92, -3064.17, 0.000, 0.000, 0.000, 17:28:39.482
46, -715.74, -439.97, 147.92, -2998.00, 0.000, 0.000, 0.000, 17:28:39.482
47, -753.07, -455.35, 164.17, -2932.95, 0.000, 0.000, 0.000, 17:28:39.482
48, -720.76, -440.44, 141.31, -3010.60, 0.000, 0.000, 0.000, 17:28:39.482
49, -696.07, -433.67, 131.90, -3088.18, 0.000, 0.000, 0.000, 17:28:39.497
50, -722.74, -445.83, 132.58, -3066.64, 0.000, 0.000, 0.000, 17:28:39.497
51, -759.91, -471.52, 139.99, -2949.37, 0.000, 0.000, 0.000, 17:28:39.527
52, -729.17, -444.63, 162.85, -3017.97, 0.000, 0.000, 0.000, 17:28:39.527
53, -693.38, -426.40, 134.17, -3103.07, 0.000, 0.000, 0.000, 17:28:39.527
54, -704.22, -428.42, 120.96, -3004.14, 0.000, 0.000, 0.000, 17:28:39.527
55, -743.38, -443.07, 155.95, -2941.92, 0.000, 0.000, 0.000, 17:28:39.528
56, -708.84, -423.96, 157.40, -3015.14, 0.000, 0.000, 0.000, 17:28:39.528
57, -658.78, -394.53, 144.51, -3055.26, 0.000, 0.000, 0.000, 17:28:39.529
58, -686.97, -411.56, 141.35, -3011.00, 0.000, 0.000, 0.000, 17:28:39.529
59, -739.90, -435.53, 187.91, -3100.29, 0.000, 0.000, 0.000, 17:28:39.542
60, -683.48, -398.25, 160.43, -3020.47, 0.000, 0.000, 0.000, 17:28:39.542
61, -641.92, -375.76, 140.14, -3062.01, 0.000, 0.000, 0.000, 17:28:39.557
62, -655.51, -376.02, 143.80, -2987.29, 0.000, 0.000, 0.000, 17:28:39.557
63, -684.17, -386.10, 158.62, -2916.80, 0.000, 0.000, 0.000, 17:28:39.572
64, -651.51, -372.21, 161.68, -3018.56, 0.000, 0.000, 0.000, 17:28:39.572
65, -615.05, -350.87, 157.75, -3096.04, 0.000, 0.000, 0.000, 17:28:39.572
66, -629.31, -350.77, 154.46, -2997.43, 0.000, 0.000, 0.000, 17:28:39.572
67, -662.47, -367.38, 177.03, -2963.50, 0.000, 0.000, 0.000, 17:28:39.587
68, -635.80, -349.47, 191.80, -3050.36, 0.000, 0.000, 0.000, 17:28:39.587
69, -591.19, -333.19, 146.17, -3074.99, 0.000, 0.000, 0.000, 17:28:39.602
70, -613.55, -337.34, 156.80, -3010.74, 0.000, 0.000, 0.000, 17:28:39.602
71, -657.62, -361.78, 180.19, -2952.34, 0.000, 0.000, 0.000, 17:28:39.602
72, -630.50, -350.93, 166.75, -3014.21, 0.000, 0.000, 0.000, 17:28:39.602
73, -586.23, -323.61, 164.35, -3063.48, 0.000, 0.000, 0.000, 17:28:39.617
74, -618.67, -346.05, 163.22, -3034.28, 0.000, 0.000, 0.000, 17:28:39.617
75, -646.67, -353.62, 169.80, -2919.76, 0.000, 0.000, 0.000, 17:28:39.632
76, -626.05, -336.53, 171.09, -3022.45, 0.000, 0.000, 0.000, 17:28:39.632
77, -586.54, -320.54, 151.39, -3071.76, 0.000, 0.000, 0.000, 17:28:39.632
78, -598.02, -322.37, 155.46, -2949.46, 0.000, 0.000, 0.000, 17:28:39.632
79, -636.52, -341.08, 182.95, -2933.88, 0.000, 0.000, 0.000, 17:28:39.647
80, -616.68, -325.59, 193.09, -3037.09, 0.000, 0.000, 0.000, 17:28:39.647
81, -566.29, -303.48, 171.34, -3033.49, 0.000, 0.000, 0.000, 17:28:39.662
82, -600.93, -325.06, 164.14, -2984.34, 0.000, 0.000, 0.000, 17:28:39.662
83, -642.57, -340.43, 192.75, -2946.04, 0.000, 0.000, 0.000, 17:28:39.662
84, -602.18, -318.68, 190.86, -2992.01, 0.000, 0.000, 0.000, 17:28:39.662
85, -572.76, -315.57, 165.35, -3055.37, 0.000, 0.000, 0.000, 17:28:39.677
86, -602.54, -323.45, 174.17, -3015.67, 0.000, 0.000, 0.000, 17:28:39.677
87, -629.62, -333.93, 189.51, -2899.05, 0.000, 0.000, 0.000, 17:28:39.692
88, -606.57, -321.92, 182.88, -3017.01, 0.000, 0.000, 0.000, 17:28:39.692
89, -572.56, -303.85, 166.61, -3060.43, 0.000, 0.000, 0.000, 17:28:39.692
90, -593.15, -311.11, 161.94, -2976.96, 0.000, 0.000, 0.000, 17:28:39.692
91, -627.06, -324.36, 183.92, -2931.78, 0.000, 0.000, 0.000, 17:28:39.707
92, -599.48, -306.15, 188.56, -3034.66, 0.000, 0.000, 0.000, 17:28:39.707
93, -558.01, -294.77, 158.06, -3042.56, 0.000, 0.000, 0.000, 17:28:39.722
94, -585.77, -303.55, 149.65, -2997.88, 0.000, 0.000, 0.000, 17:28:39.722
95, -626.27, -325.81, 178.70, -2970.48, 0.000, 0.000, 0.000, 17:28:39.722
96, -605.12, -310.11, 174.44, -3017.94, 0.000, 0.000, 0.000, 17:28:39.722
97, -560.66, -292.76, 152.84, -3060.10, 0.000, 0.000, 0.000, 17:28:39.737
98, -589.58, -302.99, 161.43, -3013.35, 0.000, 0.000, 0.000, 17:28:39.737
99, -618.70, -315.29, 168.88, -2892.38, 0.000, 0.000, 0.000, 17:28:39.752
100, -591.90, -300.76, 169.48, -2994.31, 0.000, 0.000, 0.000, 17:28:39.752
101, -565.76, -301.03, 155.72, -3073.15, 0.000, 0.000, 0.000, 17:28:39.752
102, -588.38, -310.76, 150.26, -2974.76, 0.000, 0.000, 0.000, 17:28:39.752
103, -621.33, -319.85, 171.68, -2945.79, 0.000, 0.000, 0.000, 17:28:39.767
104, -589.97, -302.29, 180.33, -3024.75, 0.000, 0.000, 0.000, 17:28:39.767
105, -537.98, -273.99, 152.58, -3025.67, 0.000, 0.000, 0.000, 17:28:39.782
106, -571.88, -296.17, 141.07, -2965.49, 0.000, 0.000, 0.000, 17:28:39.782
107, -609.77, -313.18, 170.42, -2925.01, 0.000, 0.000, 0.000, 17:28:39.782
108, -578.05, -300.96, 170.08, -2966.36, 0.000, 0.000, 0.000, 17:28:39.782
109, -543.07, -278.22, 148.38, -3046.83, 0.000, 0.000, 0.000, 17:28:39.797
110, -567.77, -293.46, 166.03, -3005.87, 0.000, 0.000, 0.000, 17:28:39.797
111, -603.60, -309.25, 173.55, -2908.78, 0.000, 0.000, 0.000, 17:28:39.812
112, -583.05, -296.76, 182.70, -3008.37, 0.000, 0.000, 0.000, 17:28:39.812
113, -548.54, -285.51, 161.84, -3053.56, 0.000, 0.000, 0.000, 17:28:39.812
114, -576.82, -300.39, 146.34, -2963.79, 0.000, 0.000, 0.000, 17:28:39.812
115, -609.01, -309.82, 174.10, -2924.33, 0.000, 0.000, 0.000, 17:28:39.842
116, -585.51, -302.81, 178.71, -3010.72, 0.000, 0.000, 0.000, 17:28:39.842
117, -541.36, -282.56, 146.58, -3011.68, 0.000, 0.000, 0.000, 17:28:39.842
118, -569.00, -297.32, 148.23, -2955.66, 0.000, 0.000, 0.000, 17:28:39.842
119, -607.94, -312.31, 167.18, -2901.73, 0.000, 0.000, 0.000, 17:28:39.843
120, -585.69, -303.97, 171.33, -2990.12, 0.000, 0.000, 0.000, 17:28:39.843
121, -546.87, -280.22, 160.29, -3055.00, 0.000, 0.000, 0.000, 17:28:39.857
122, -587.92, -301.44, 169.79, -3040.52, 0.000, 0.000, 0.000, 17:28:39.857
123, -621.42, -320.45, 161.64, -2910.70, 0.000, 0.000, 0.000, 17:28:39.872
124, -590.60, -302.56, 171.40, -2994.95, 0.000, 0.000, 0.000, 17:28:39.872
125, -553.33, -281.19, 161.69, -3048.40, 0.000, 0.000, 0.000, 17:28:39.872
126, -570.47, -293.54, 139.57, -2925.93, 0.000, 0.000, 0.000, 17:28:39.872
127, -611.77, -314.33, 164.61, -2909.19, 0.000, 0.000, 0.000, 17:28:39.887
128, -592.85, -297.81, 177.85, -3019.08, 0.000, 0.000, 0.000, 17:28:39.887
129, -550.83, -282.11, 147.68, -3054.38, 0.000, 0.000, 0.000, 17:28:39.902
130, -594.21, -304.01, 154.30, -3002.35, 0.000, 0.000, 0.000, 17:28:39.902
131, -622.73, -323.18, 180.51, -2958.09, 0.000, 0.000, 0.000, 17:28:39.902
132, -572.98, -293.66, 181.33, -3042.53, 0.000, 0.000, 0.000, 17:28:39.902
133, -539.98, -276.06, 162.95, -3080.57, 0.000, 0.000, 0.000, 17:28:39.918
134, -583.63, -302.83, 164.12, -3070.24, 0.000, 0.000, 0.000, 17:28:39.918
135, -587.59, -297.91, 167.07, -2895.96, 0.000, 0.000, 0.000, 17:28:39.932
136, -559.11, -283.92, 176.79, -3002.28, 0.000, 0.000, 0.000, 17:28:39.932
137, -535.13, -270.37, 165.18, -3066.00, 0.000, 0.000, 0.000, 17:28:39.932
138, -562.10, -283.58, 150.78, -2948.71, 0.000, 0.000, 0.000, 17:28:39.932
139, -606.31, -306.92, 170.49, -2940.57, 0.000, 0.000, 0.000, 17:28:39.947
140, -584.45, -293.19, 192.14, -3033.28, 0.000, 0.000, 0.000, 17:28:39.947
141, -540.65, -279.95, 153.68, -3061.48, 0.000, 0.000, 0.000, 17:28:39.962
142, -574.80, -298.14, 154.09, -2977.24, 0.000, 0.000, 0.000, 17:28:39.962
143, -610.61, -314.02, 188.11, -2935.63, 0.000, 0.000, 0.000, 17:28:39.962
144, -587.61, -305.38, 170.60, -2994.51, 0.000, 0.000, 0.000, 17:28:39.962
145, -550.72, -287.68, 153.74, -3038.33, 0.000, 0.000, 0.000, 17:28:39.977
146, -582.32, -300.78, 157.67, -3009.83, 0.000, 0.000, 0.000, 17:28:39.977
147, -605.11, -308.94, 183.21, -2907.45, 0.000, 0.000, 0.000, 17:28:39.992
148, -589.23, -306.16, 177.07, -2969.77, 0.000, 0.000, 0.000, 17:28:39.992
149, -550.69, -289.75, 151.69, -3048.91, 0.000, 0.000, 0.000, 17:28:39.992
150, -576.41, -300.47, 149.87, -2965.91, 0.000, 0.000, 0.000, 17:28:39.992
151, -622.23, -319.36, 171.42, -2932.98, 0.000, 0.000, 0.000, 17:28:40.007
152, -591.69, -306.26, 194.20, -3038.79, 0.000, 0.000, 0.000, 17:28:40.007
153, -550.23, -288.47, 159.24, -3053.95, 0.000, 0.000, 0.000, 17:28:40.022
154, -568.05, -291.71, 165.65, -2966.92, 0.000, 0.000, 0.000, 17:28:40.022
155, -615.33, -313.63, 178.65, -2930.19, 0.000, 0.000, 0.000, 17:28:40.022
156, -577.01, -294.07, 174.41, -2973.61, 0.000, 0.000, 0.000, 17:28:40.022
157, -538.51, -277.70, 157.61, -3060.44, 0.000, 0.000, 0.000, 17:28:40.037
158, -578.96, -297.41, 161.29, -3040.42, 0.000, 0.000, 0.000, 17:28:40.037
159, -601.99, -307.60, 173.22, -2906.36, 0.000, 0.000, 0.000, 17:28:40.052
160, -582.17, -296.01, 183.59, -2989.92, 0.000, 0.000, 0.000, 17:28:40.052
161, -539.89, -276.69, 163.07, -3078.71, 0.000, 0.000, 0.000, 17:28:40.052
162, -572.32, -301.31, 141.35, -2992.66, 0.000, 0.000, 0.000, 17:28:40.052
163, -600.15, -305.09, 170.86, -2924.40, 0.000, 0.000, 0.000, 17:28:40.067
164, -590.68, -307.29, 178.77, -3059.65, 0.000, 0.000, 0.000, 17:28:40.067
165, -546.22, -286.54, 153.73, -3040.92, 0.000, 0.000, 0.000, 17:28:40.082
166, -576.46, -299.67, 150.15, -2984.04, 0.000, 0.000, 0.000, 17:28:40.082
167, -599.56, -295.69, 190.33, -2920.63, 0.000, 0.000, 0.000, 17:28:40.082
168, -572.64, -289.37, 184.84, -2967.65, 0.000, 0.000, 0.000, 17:28:40.082
169, -536.82, -269.61, 158.46, -3081.89, 0.000, 0.000, 0.000, 17:28:40.097
170, -594.29, -307.91, 157.04, -3061.98, 0.000, 0.000, 0.000, 17:28:40.097
171, -607.74, -306.04, 175.03, -2898.69, 0.000, 0.000, 0.000, 17:28:40.112
172, -582.64, -291.40, 178.18, -2999.55, 0.000, 0.000, 0.000, 17:28:40.112
173, -542.63, -282.40, 168.52, -3071.02, 0.000, 0.000, 0.000, 17:28:40.112
174, -573.80, -297.14, 151.71, -2953.95, 0.000, 0.000, 0.000, 17:28:40.112
175, -604.54, -307.73, 181.62, -2940.98, 0.000, 0.000, 0.000, 17:28:40.127
176, -592.33, -300.57, 183.70, -3040.67, 0.000, 0.000, 0.000, 17:28:40.127
177, -535.25, -276.86, 165.70, -3012.64, 0.000, 0.000, 0.000, 17:28:40.157
178, -564.54, -295.46, 161.93, -2962.92, 0.000, 0.000, 0.000, 17:28:40.157
179, -614.46, -313.87, 176.70, -2917.68, 0.000, 0.000, 0.000, 17:28:40.157
180, -585.44, -301.06, 165.26, -2992.93, 0.000, 0.000, 0.000, 17:28:40.157
181, -541.42, -276.54, 157.53, -3069.30, 0.000, 0.000, 0.000, 17:28:40.158
182, -569.64, -289.26, 157.72, -2968.21, 0.000, 0.000, 0.000, 17:28:40.158
183, -608.51, -307.41, 174.04, -2905.59, 0.000, 0.000, 0.000, 17:28:40.159
184, -574.05, -285.30, 185.89, -3003.35, 0.000, 0.000, 0.000, 17:28:40.159
185, -558.21, -276.84, 171.11, -3178.29, 0.000, 0.000, 0.000, 17:28:40.172
186, -566.95, -288.53, 139.07, -2963.79, 0.000, 0.000, 0.000, 17:28:40.172
187, -607.66, -306.48, 168.72, -2919.51, 0.000, 0.000, 0.000, 17:28:40.187
188, -580.37, -287.17, 186.92, -3032.24, 0.000, 0.000, 0.000, 17:28:40.187
189, -536.30, -270.21, 152.26, -3027.88, 0.000, 0.000, 0.000, 17:28:40.202
190, -574.66, -293.48, 151.27, -2985.72, 0.000, 0.000, 0.000, 17:28:40.202
191, -611.10, -302.99, 192.15, -2940.47, 0.000, 0.000, 0.000, 17:28:40.202
192, -587.09, -291.23, 166.92, -2985.03, 0.000, 0.000, 0.000, 17:28:40.202
193, -554.26, -282.81, 151.38, -3070.66, 0.000, 0.000, 0.000, 17:28:40.217
194, -581.24, -295.43, 155.83, -2989.69, 0.000, 0.000, 0.000, 17:28:40.217
195, -601.42, -303.52, 175.34, -2885.12, 0.000, 0.000, 0.000, 17:28:40.232
196, -582.52, -289.47, 178.88, -2986.71, 0.000, 0.000, 0.000, 17:28:40.232
197, -546.88, -277.85, 162.80, -3062.94, 0.000, 0.000, 0.000, 17:28:40.232
198, -575.02, -292.03, 153.34, -2962.04, 0.000, 0.000, 0.000, 17:28:40.232
199, -612.95, -311.01, 178.20, -2930.84, 0.000, 0.000, 0.000, 17:28:40.247
200, -586.64, -297.91, 185.27, -3030.81, 0.000, 0.000, 0.000, 17:28:40.247
0, -536.52, -278.89, 153.44, -3051.35, 0.000, 0.000, 0.000, 17:28:40.247
1, -565.98, -289.93, 161.92, -3008.51, 0.000, 0.000, 0.000, 17:28:40.262
2, -611.96, -308.65, 193.10, -2975.75, 0.000, 0.000, 0.000, 17:28:40.262
3, -573.54, -290.86, 177.67, -2976.01, 0.000, 0.000, 0.000, 17:28:40.277
4, -534.85, -272.69, 164.67, -3041.05, 0.000, 0.000, 0.000, 17:28:40.277
5, -574.35, -295.64, 160.10, -2977.62, 0.000, 0.000, 0.000, 17:28:40.277
6, -599.10, -303.37, 186.89, -2890.08, 0.000, 0.000, 0.000, 17:28:40.277
7, -575.13, -293.03, 192.78, -3020.90, 0.000, 0.000, 0.000, 17:28:40.292
8, -537.12, -274.88, 178.63, -3075.31, 0.000, 0.000, 0.000, 17:28:40.292
9, -560.41, -283.99, 163.20, -2926.13, 0.000, 0.000, 0.000, 17:28:40.307
10, -598.17, -303.95, 186.28, -2903.29, 0.000, 0.000, 0.000, 17:28:40.307
11, -577.65, -293.31, 196.70, -3004.21, 0.000, 0.000, 0.000, 17:28:40.307
12, -533.09, -271.52, 152.17, -3033.45, 0.000, 0.000, 0.000, 17:28:40.307
13, -561.64, -285.25, 149.78, -2985.47, 0.000, 0.000, 0.000, 17:28:40.322
14, -603.15, -297.78, 187.81, -2951.13, 0.000, 0.000, 0.000, 17:28:40.323
15, -567.13, -282.74, 167.89, -2972.44, 0.000, 0.000, 0.000, 17:28:40.337
16, -534.44, -270.62, 151.28, -3040.17, 0.000, 0.000, 0.000, 17:28:40.337
17, -566.89, -284.89, 155.73, -2964.46, 0.000, 0.000, 0.000, 17:28:40.337
18, -596.98, -298.31, 170.07, -2885.21, 0.000, 0.000, 0.000, 17:28:40.337
19, -582.06, -292.68, 169.93, -3012.13, 0.000, 0.000, 0.000, 17:28:40.352
20, -534.10, -262.33, 175.71, -3058.07, 0.000, 0.000, 0.000, 17:28:40.352
21, -569.88, -293.17, 140.49, -2967.04, 0.000, 0.000, 0.000, 17:28:40.367
22, -605.22, -303.67, 173.21, -2902.91, 0.000, 0.000, 0.000, 17:28:40.367
23, -573.72, -288.33, 171.28, -3001.01, 0.000, 0.000, 0.000, 17:28:40.367
24, -530.81, -269.17, 148.04, -3017.58, 0.000, 0.000, 0.000, 17:28:40.367
25, -556.05, -280.70, 153.11, -3003.47, 0.000, 0.000, 0.000, 17:28:40.382
26, -611.81, -311.03, 179.29, -2952.51, 0.000, 0.000, 0.000, 17:28:40.382
27, -572.88, -291.46, 166.55, -2969.66, 0.000, 0.000, 0.000, 17:28:40.397
28, -534.35, -271.80, 141.38, -3034.93, 0.000, 0.000, 0.000, 17:28:40.397
29, -564.37, -286.90, 145.03, -2967.44, 0.000, 0.000, 0.000, 17:28:40.397
30, -595.68, -299.66, 157.14, -2904.80, 0.000, 0.000, 0.000, 17:28:40.397
31, -573.25, -289.50, 166.54, -3002.13, 0.000, 0.000, 0.000, 17:28:40.412
32, -536.20, -274.15, 152.14, -3069.62, 0.000, 0.000, 0.000, 17:28:40.412
33, -571.01, -295.13, 138.39, -2982.40, 0.000, 0.000, 0.000, 17:28:40.427
34, -605.91, -304.92, 174.07, -2945.89, 0.000, 0.000, 0.000, 17:28:40.427
35, -578.66, -286.33, 179.65, -3009.43, 0.000, 0.000, 0.000, 17:28:40.427
36, -541.37, -277.98, 150.20, -3033.99, 0.000, 0.000, 0.000, 17:28:40.428
37, -558.28, -285.09, 163.76, -2952.47, 0.000, 0.000, 0.000, 17:28:40.442
38, -606.05, -307.22, 190.14, -2927.08, 0.000, 0.000, 0.000, 17:28:40.442
39, -564.92, -286.71, 177.92, -2972.52, 0.000, 0.000, 0.000, 17:28:40.457
40, -529.35, -272.05, 152.87, -3013.19, 0.000, 0.000, 0.000, 17:28:40.457
41, -558.97, -285.58, 150.70, -2956.79, 0.000, 0.000, 0.000, 17:28:40.457
42, -597.55, -301.99, 167.93, -2869.36, 0.000, 0.000, 0.000, 17:28:40.457
43, -571.90, -289.40, 175.96, -3001.17, 0.000, 0.000, 0.000, 17:28:40.487
44, -543.22, -280.71, 155.32, -3078.60, 0.000, 0.000, 0.000, 17:28:40.487
45, -559.82, -281.06, 143.89, -2949.04, 0.000, 0.000, 0.000, 17:28:40.487
46, -593.25, -294.16, 180.59, -2918.48, 0.000, 0.000, 0.000, 17:28:40.487
47, -562.30, -272.92, 186.44, -2984.58, 0.000, 0.000, 0.000, 17:28:40.488
48, -536.75, -272.58, 152.65, -3023.63, 0.000, 0.000, 0.000, 17:28:40.488
49, -562.53, -281.28, 152.38, -2981.20, 0.000, 0.000, 0.000, 17:28:40.502
50, -606.07, -301.03, 198.99, -2970.77, 0.000, 0.000, 0.000, 17:28:40.502
51, -565.99, -286.47, 173.06, -2979.37, 0.000, 0.000, 0.000, 17:28:40.517
52, -535.49, -267.75, 143.74, -3034.01, 0.000, 0.000, 0.000, 17:28:40.517
53, -573.57, -290.19, 150.61, -2985.04, 0.000, 0.000, 0.000, 17:28:40.517
54, -606.62, -304.27, 176.55, -2923.16, 0.000, 0.000, 0.000, 17:28:40.517
55, -579.15, -293.77, 183.50, -3005.31, 0.000, 0.000, 0.000, 17:28:40.532
56, -552.08, -280.71, 161.15, -3111.22, 0.000, 0.000, 0.000, 17:28:40.532
57, -568.23, -290.30, 158.23, -2955.46, 0.000, 0.000, 0.000, 17:28:40.547
58, -605.93, -308.87, 176.38, -2928.16, 0.000, 0.000, 0.000, 17:28:40.547
59, -579.42, -295.06, 180.97, -3009.63, 0.000, 0.000, 0.000, 17:28:40.547
60, -532.37, -269.85, 152.49, -3017.69, 0.000, 0.000, 0.000, 17:28:40.547
61, -569.52, -293.98, 146.83, -3003.09, 0.000, 0.000, 0.000, 17:28:40.562
62, -614.99, -307.44, 184.17, -2990.52, 0.000, 0.000, 0.000, 17:28:40.562
63, -577.55, -288.73, 173.45, -3000.69, 0.000, 0.000, 0.000, 17:28:40.577
64, -544.23, -279.46, 148.28, -3070.11, 0.000, 0.000, 0.000, 17:28:40.577
65, -570.11, -285.88, 152.66, -2965.19, 0.000, 0.000, 0.000, 17:28:40.577
66, -604.91, -303.78, 172.72, -2878.84, 0.000, 0.000, 0.000, 17:28:40.577
67, -588.70, -300.89, 167.76, -3028.78, 0.000, 0.000, 0.000, 17:28:40.592
68, -557.44, -285.66, 162.17, -3127.06, 0.000, 0.000, 0.000, 17:28:40.592
69, -580.72, -299.29, 160.07, -2988.31, 0.000, 0.000, 0.000, 17:28:40.607
70, -615.64, -313.76, 167.53, -2952.64, 0.000, 0.000, 0.000, 17:28:40.607
71, -587.88, -291.03, 187.98, -3047.35, 0.000, 0.000, 0.000, 17:28:40.607
72, -541.38, -276.81, 160.58, -3068.42, 0.000, 0.000, 0.000, 17:28:40.607
73, -574.19, -295.96, 164.85, -2998.86, 0.000, 0.000, 0.000, 17:28:40.622
74, -619.01, -318.81, 193.24, -3002.90, 0.000, 0.000, 0.000, 17:28:40.622
75, -582.25, -299.63, 178.29, -3013.40, 0.000, 0.000, 0.000, 17:28:40.637
76, -545.11, -282.80, 144.04, -3102.29, 0.000, 0.000, 0.000, 17:28:40.637
77, -577.74, -296.07, 150.07, -3009.00, 0.000, 0.000, 0.000, 17:28:40.637
78, -613.77, -313.81, 163.51, -2947.62, 0.000, 0.000, 0.000, 17:28:40.637
79, -587.75, -296.46, 168.76, -3017.49, 0.000, 0.000, 0.000, 17:28:40.652
80, -547.66, -279.98, 162.84, -3125.10, 0.000, 0.000, 0.000, 17:28:40.652
81, -567.51, -288.47, 156.12, -2979.62, 0.000, 0.000, 0.000, 17:28:40.667
82, -612.20, -313.05, 171.76, -2965.81, 0.000, 0.000, 0.000, 17:28:40.667
83, -581.63, -297.48, 167.00, -3005.63, 0.000, 0.000, 0.000, 17:28:40.667
84, -543.33, -284.22, 145.25, -3046.02, 0.000, 0.000, 0.000, 17:28:40.667
85, -569.92, -297.40, 156.82, -2992.02, 0.000, 0.000, 0.000, 17:28:40.682
86, -622.10, -318.26, 179.58, -2980.00, 0.000, 0.000, 0.000, 17:28:40.682
87, -581.65, -304.35, 163.60, -2990.61, 0.000, 0.000, 0.000, 17:28:40.697
88, -550.67, -294.44, 141.70, -3090.91, 0.000, 0.000, 0.000, 17:28:40.697
89, -581.47, -301.94, 154.87, -3024.87, 0.000, 0.000, 0.000, 17:28:40.697
90, -616.40, -313.09, 178.23, -2923.84, 0.000, 0.000, 0.000, 17:28:40.697
91, -583.44, -301.93, 177.65, -2995.43, 0.000, 0.000, 0.000, 17:28:40.712
92, -563.49, -289.91, 160.61, -3100.51, 0.000, 0.000, 0.000, 17:28:40.712
93, -575.02, -297.93, 139.84, -2952.78, 0.000, 0.000, 0.000, 17:28:40.727
94, -623.43, -319.11, 157.71, -2949.74, 0.000, 0.000, 0.000, 17:28:40.727
95, -600.69, -312.03, 159.59, -3043.51, 0.000, 0.000, 0.000, 17:28:40.727
96, -558.51, -294.46, 140.27, -3045.88, 0.000, 0.000, 0.000, 17:28:40.727
99, -515.24, -273.41, 135.37, -3063.24, 0.000, 0.000, 0.000, 17:28:40.757
100, -482.39, -259.86, 116.95, -3117.79, 0.000, 0.000, 0.000, 17:28:40.757
101, -514.11, -271.69, 121.53, -3037.50, 0.000, 0.000, 0.000, 17:28:40.757
102, -540.43, -284.37, 148.57, -2943.83, 0.000, 0.000, 0.000, 17:28:40.757
103, -516.55, -273.15, 147.27, -3057.39, 0.000, 0.000, 0.000, 17:28:40.772
104, -477.03, -255.41, 137.37, -3170.81, 0.000, 0.000, 0.000, 17:28:40.772
105, -511.78, -281.32, 104.71, -3027.26, 0.000, 0.000, 0.000, 17:28:40.802
106, -551.97, -295.04, 136.38, -2996.14, 0.000, 0.000, 0.000, 17:28:40.802
107, -526.86, -278.75, 143.24, -3071.05, 0.000, 0.000, 0.000, 17:28:40.802
108, -485.23, -260.47, 117.10, -3102.44, 0.000, 0.000, 0.000, 17:28:40.803
109, -517.71, -281.23, 111.69, -3058.50, 0.000, 0.000, 0.000, 17:28:40.803
110, -547.67, -287.25, 133.52, -2957.33, 0.000, 0.000, 0.000, 17:28:40.803
111, -514.03, -272.52, 130.03, -3059.00, 0.000, 0.000, 0.000, 17:28:40.804
112, -477.13, -256.17, 120.30, -3137.91, 0.000, 0.000, 0.000, 17:28:40.804
113, -534.05, -280.90, 132.63, -3177.93, 0.000, 0.000, 0.000, 17:28:40.817
114, -545.14, -287.76, 134.09, -2974.19, 0.000, 0.000, 0.000, 17:28:40.817
115, -514.62, -271.39, 137.80, -3074.24, 0.000, 0.000, 0.000, 17:28:40.832
116, -484.74, -261.69, 116.54, -3145.20, 0.000, 0.000, 0.000, 17:28:40.832
117, -520.62, -275.79, 114.64, -3039.62, 0.000, 0.000, 0.000, 17:28:40.847
118, -557.10, -293.34, 135.69, -3006.06, 0.000, 0.000, 0.000, 17:28:40.847
119, -537.98, -287.40, 138.28, -3106.53, 0.000, 0.000, 0.000, 17:28:40.847
120, -480.18, -258.94, 113.30, -3103.40, 0.000, 0.000, 0.000, 17:28:40.847
121, -510.89, -271.21, 108.50, -3036.33, 0.000, 0.000, 0.000, 17:28:40.862
122, -550.87, -292.36, 141.83, -3028.66, 0.000, 0.000, 0.000, 17:28:40.862
123, -524.16, -279.29, 146.45, -3059.39, 0.000, 0.000, 0.000, 17:28:40.877
124, -490.20, -269.81, 127.59, -3090.43, 0.000, 0.000, 0.000, 17:28:40.877
125, -491.26, -252.04, 113.57, -3048.87, 0.000, 0.000, 0.000, 17:28:40.877
126, -512.09, -250.71, 139.87, -2984.86, 0.000, 0.000, 0.000, 17:28:40.877
127, -471.10, -225.75, 140.26, -3088.80, 0.000, 0.000, 0.000, 17:28:40.892
128, -402.26, -186.97, 130.63, -3154.65, 0.000, 0.000, 0.000, 17:28:40.892
129, -421.77, -194.65, 125.67, -3069.68, 0.000, 0.000, 0.000, 17:28:40.907
130, -447.73, -192.95, 149.83, -3011.10, 0.000, 0.000, 0.000, 17:28:40.907
131, -408.98, -165.29, 142.07, -3077.64, 0.000, 0.000, 0.000, 17:28:40.907
132, -355.25, -137.77, 134.95, -3086.96, 0.000, 0.000, 0.000, 17:28:40.907
133, -381.46, -149.83, 143.18, -3026.47, 0.000, 0.000, 0.000, 17:28:40.922
134, -428.36, -168.68, 154.18, -3039.39, 0.000, 0.000, 0.000, 17:28:40.922
135, -390.83, -157.06, 162.90, -3031.21, 0.000, 0.000, 0.000, 17:28:40.937
136, -375.86, -161.05, 127.63, -3102.16, 0.000, 0.000, 0.000, 17:28:40.937
137, -427.53, -195.97, 125.91, -3028.31, 0.000, 0.000, 0.000, 17:28:40.937
138, -479.87, -223.65, 154.05, -2956.13, 0.000, 0.000, 0.000, 17:28:40.937
139, -471.59, -223.76, 159.04, -3058.53, 0.000, 0.000, 0.000, 17:28:40.952
140, -445.71, -213.23, 150.79, -3145.77, 0.000, 0.000, 0.000, 17:28:40.952
141, -479.82, -238.71, 131.15, -3006.50, 0.000, 0.000, 0.000, 17:28:40.967
142, -523.62, -261.18, 158.92, -2985.68, 0.000, 0.000, 0.000, 17:28:40.967
143, -500.48, -255.46, 160.11, -3072.70, 0.000, 0.000, 0.000, 17:28:40.967
144, -470.47, -247.79, 129.67, -3107.41, 0.000, 0.000, 0.000, 17:28:40.967
145, -506.88, -264.98, 136.67, -3047.54, 0.000, 0.000, 0.000, 17:28:40.982
146, -553.03, -286.20, 160.29, -3044.82, 0.000, 0.000, 0.000, 17:28:40.982
147, -518.67, -274.70, 147.15, -3061.32, 0.000, 0.000, 0.000, 17:28:40.997
148, -479.43, -257.13, 130.45, -3104.48, 0.000, 0.000, 0.000, 17:28:40.997
149, -519.28, -280.49, 119.91, -3061.86, 0.000, 0.000, 0.000, 17:28:40.997
150, -546.84, -289.88, 160.21, -2973.19, 0.000, 0.000, 0.000, 17:28:40.997
151, -527.69, -281.08, 148.01, -3071.87, 0.000, 0.000, 0.000, 17:28:41.012
152, -499.75, -272.02, 126.10, -3165.08, 0.000, 0.000, 0.000, 17:28:41.013
153, -510.65, -280.84, 128.79, -2992.76, 0.000, 0.000, 0.000, 17:28:41.027
154, -560.72, -299.87, 152.11, -2966.09, 0.000, 0.000, 0.000, 17:28:41.027
155, -527.22, -283.47, 160.49, -3059.79, 0.000, 0.000, 0.000, 17:28:41.027
156, -482.97, -260.47, 139.50, -3085.57, 0.000, 0.000, 0.000, 17:28:41.027
157, -523.77, -282.16, 123.89, -3034.20, 0.000, 0.000, 0.000, 17:28:41.042
158, -565.57, -295.77, 154.74, -3019.20, 0.000, 0.000, 0.000, 17:28:41.042
159, -533.39, -285.72, 132.70, -3034.92, 0.000, 0.000, 0.000, 17:28:41.058
160, -493.17, -267.39, 117.04, -3128.25, 0.000, 0.000, 0.000, 17:28:41.058
161, -518.38, -278.69, 124.53, -3048.34, 0.000, 0.000, 0.000, 17:28:41.058
162, -549.11, -289.34, 145.17, -2964.20, 0.000, 0.000, 0.000, 17:28:41.058
163, -515.29, -267.83, 148.86, -3057.58, 0.000, 0.000, 0.000, 17:28:41.072
164, -497.63, -261.18, 124.94, -3184.28, 0.000, 0.000, 0.000, 17:28:41.072
165, -501.49, -263.08, 123.21, -3024.60, 0.000, 0.000, 0.000, 17:28:41.087
166, -540.45, -281.56, 147.68, -2971.09, 0.000, 0.000, 0.000, 17:28:41.087
167, -512.31, -266.02, 159.88, -3060.19, 0.000, 0.000, 0.000, 17:28:41.087
168, -476.75, -248.27, 126.61, -3087.45, 0.000, 0.000, 0.000, 17:28:41.087
169, -512.90, -269.63, 120.30, -3052.96, 0.000, 0.000, 0.000, 17:28:41.117
170, -539.62, -281.33, 169.83, -3007.02, 0.000, 0.000, 0.000, 17:28:41.117
171, -515.07, -280.19, 166.19, -3029.58, 0.000, 0.000, 0.000, 17:28:41.117
172, -489.23, -252.26, 127.45, -3128.98, 0.000, 0.000, 0.000, 17:28:41.117
173, -494.13, -241.98, 124.96, -3011.67, 0.000, 0.000, 0.000, 17:28:41.118
174, -535.37, -269.42, 144.82, -2930.85, 0.000, 0.000, 0.000, 17:28:41.118
175, -496.24, -252.04, 154.07, -3030.60, 0.000, 0.000, 0.000, 17:28:41.132
176, -480.29, -246.08, 138.15, -3161.25, 0.000, 0.000, 0.000, 17:28:41.132
177, -499.27, -256.92, 112.27, -3021.26, 0.000, 0.000, 0.000, 17:28:41.147
178, -539.06, -273.77, 140.53, -2977.33, 0.000, 0.000, 0.000, 17:28:41.147
179, -511.96, -263.89, 144.34, -3083.54, 0.000, 0.000, 0.000, 17:28:41.147
180, -475.66, -246.01, 122.03, -3109.26, 0.000, 0.000, 0.000, 17:28:41.147
181, -505.72, -267.58, 113.77, -3053.37, 0.000, 0.000, 0.000, 17:28:41.162
182, -548.80, -287.18, 149.45, -3044.16, 0.000, 0.000, 0.000, 17:28:41.162
183, -520.29, -277.39, 137.91, -3089.77, 0.000, 0.000, 0.000, 17:28:41.177
184, -490.85, -257.61, 114.16, -3177.68, 0.000, 0.000, 0.000, 17:28:41.177
185, -524.21, -279.40, 122.68, -3072.97, 0.000, 0.000, 0.000, 17:28:41.177
186, -554.64, -297.31, 141.33, -2978.46, 0.000, 0.000, 0.000, 17:28:41.177
187, -519.24, -278.15, 152.22, -3053.38, 0.000, 0.000, 0.000, 17:28:41.192
188, -486.72, -261.98, 128.78, -3170.94, 0.000, 0.000, 0.000, 17:28:41.192
189, -510.17, -271.62, 125.85, -3016.17, 0.000, 0.000, 0.000, 17:28:41.207
190, -550.32, -283.95, 142.37, -2992.77, 0.000, 0.000, 0.000, 17:28:41.207
191, -516.59, -271.81, 148.45, -3064.86, 0.000, 0.000, 0.000, 17:28:41.207
192, -480.32, -258.48, 115.57, -3100.45, 0.000, 0.000, 0.000, 17:28:41.208
193, -509.84, -270.68, 123.32, -3055.48, 0.000, 0.000, 0.000, 17:28:41.222
194, -550.95, -289.01, 156.38, -3073.91, 0.000, 0.000, 0.000, 17:28:41.222
195, -509.50, -260.68, 154.25, -3045.10, 0.000, 0.000, 0.000, 17:28:41.237
196, -472.76, -249.74, 125.24, -3108.61, 0.000, 0.000, 0.000, 17:28:41.237
197, -509.25, -268.00, 126.59, -3043.73, 0.000, 0.000, 0.000, 17:28:41.237
198, -543.41, -280.31, 139.55, -2991.41, 0.000, 0.000, 0.000, 17:28:41.237
199, -520.86, -271.47, 137.90, -3088.98, 0.000, 0.000, 0.000, 17:28:41.252
200, -483.51, -251.17, 124.03, -3171.25, 0.000, 0.000, 0.000, 17:28:41.252
0, -569.87, -293.20, 140.38, -2941.88, 0.000, 0.000, 0.000, 17:28:41.252
1, -606.10, -313.93, 172.04, -2930.33, 0.000, 0.000, 0.000, 17:28:41.267
2, -579.68, -294.58, 189.73, -3020.70, 0.000, 0.000, 0.000, 17:28:41.267
3, -547.06, -287.61, 157.86, -3030.73, 0.000, 0.000, 0.000, 17:28:41.282
4, -574.73, -294.75, 150.90, -2985.98, 0.000, 0.000, 0.000, 17:28:41.282
