%OpenBCI Raw EEG Data
%
%Sample Rate = 200.0 Hz
%First Column = SampleIndex
%Last Column = Timestamp 
%Other Columns = EEG data in microvolts followed by Accel Data (in G) interleaved with Aux Data
0, -86.00, 102.29, 217.22, -3088.08, 0.000, 0.000, 0.000, 18:29:37.605
1, -116.97, 104.64, 222.32, -3133.10, 0.000, 0.000, 0.000, 18:29:37.620
2, -98.90, 94.87, 222.34, -3089.36, 0.000, 0.000, 0.000, 18:29:37.620
3, -84.23, 87.45, 209.79, -3019.86, 0.000, 0.000, 0.000, 18:29:37.635
4, -80.39, 110.55, 222.39, -3065.50, 0.000, 0.000, 0.000, 18:29:37.635
5, -109.51, 113.09, 215.40, -3155.06, 0.000, 0.000, 0.000, 18:29:37.636
6, -117.42, 87.87, 214.46, -3076.46, 0.000, 0.000, 0.000, 18:29:37.636
7, -79.14, 94.20, 211.15, -3047.86, 0.000, 0.000, 0.000, 18:29:37.650
8, -76.27, 107.59, 204.28, -3150.30, 0.000, 0.000, 0.000, 18:29:37.650
9, -113.66, 109.42, 215.29, -3141.29, 0.000, 0.000, 0.000, 18:29:37.665
10, -101.13, 96.42, 227.57, -3080.36, 0.000, 0.000, 0.000, 18:29:37.665
11, -75.17, 87.10, 210.54, -3055.07, 0.000, 0.000, 0.000, 18:29:37.666
12, -91.12, 100.11, 211.07, -3065.16, 0.000, 0.000, 0.000, 18:29:37.666
13, -121.06, 98.21, 218.77, -3129.80, 0.000, 0.000, 0.000, 18:29:37.680
14, -106.87, 86.92, 211.41, -3134.27, 0.000, 0.000, 0.000, 18:29:37.680
15, -77.14, 94.00, 222.45, -3019.95, 0.000, 0.000, 0.000, 18:29:37.695
16, -77.66, 106.93, 221.25, -3104.39, 0.000, 0.000, 0.000, 18:29:37.695
17, -97.61, 116.31, 231.00, -3168.68, 0.000, 0.000, 0.000, 18:29:37.696
18, -110.14, 84.23, 225.16, -3077.91, 0.000, 0.000, 0.000, 18:29:37.696
19, -88.73, 79.98, 212.36, -3023.22, 0.000, 0.000, 0.000, 18:29:37.710
20, -70.67, 110.76, 216.56, -3130.77, 0.000, 0.000, 0.000, 18:29:37.710
21, -111.97, 104.74, 217.79, -3156.34, 0.000, 0.000, 0.000, 18:29:37.725
22, -97.36, 93.42, 228.97, -3096.86, 0.000, 0.000, 0.000, 18:29:37.725
23, -63.26, 94.06, 216.66, -3059.00, 0.000, 0.000, 0.000, 18:29:37.726
24, -87.94, 105.23, 216.53, -3068.74, 0.000, 0.000, 0.000, 18:29:37.726
25, -113.95, 108.98, 226.15, -3112.34, 0.000, 0.000, 0.000, 18:29:37.740
26, -102.36, 94.15, 221.06, -3085.14, 0.000, 0.000, 0.000, 18:29:37.740
27, -91.19, 86.36, 211.09, -3029.97, 0.000, 0.000, 0.000, 18:29:37.755
28, -92.72, 102.42, 217.71, -3079.35, 0.000, 0.000, 0.000, 18:29:37.755
29, -102.38, 114.14, 229.49, -3138.22, 0.000, 0.000, 0.000, 18:29:37.756
30, -109.43, 90.32, 226.50, -3059.06, 0.000, 0.000, 0.000, 18:29:37.756
31, -76.62, 93.37, 219.90, -3021.21, 0.000, 0.000, 0.000, 18:29:37.770
32, -71.09, 115.90, 219.14, -3096.09, 0.000, 0.000, 0.000, 18:29:37.771
33, -109.43, 113.80, 229.68, -3134.46, 0.000, 0.000, 0.000, 18:29:37.785
34, -99.96, 100.34, 228.06, -3079.41, 0.000, 0.000, 0.000, 18:29:37.785
35, -80.79, 88.47, 208.50, -3044.57, 0.000, 0.000, 0.000, 18:29:37.786
36, -90.57, 105.11, 212.26, -3082.18, 0.000, 0.000, 0.000, 18:29:37.786
37, -109.13, 112.16, 232.08, -3119.17, 0.000, 0.000, 0.000, 18:29:37.800
38, -99.77, 94.48, 218.74, -3122.13, 0.000, 0.000, 0.000, 18:29:37.800
39, -79.73, 89.58, 224.84, -3006.67, 0.000, 0.000, 0.000, 18:29:37.815
40, -76.32, 108.22, 232.33, -3085.47, 0.000, 0.000, 0.000, 18:29:37.815
41, -94.25, 113.73, 235.32, -3154.00, 0.000, 0.000, 0.000, 18:29:37.816
42, -101.83, 93.85, 233.39, -3049.85, 0.000, 0.000, 0.000, 18:29:37.816
43, -65.95, 95.66, 230.31, -3011.54, 0.000, 0.000, 0.000, 18:29:37.830
44, -65.00, 106.41, 223.18, -3106.80, 0.000, 0.000, 0.000, 18:29:37.830
45, -105.67, 107.69, 229.09, -3129.43, 0.000, 0.000, 0.000, 18:29:37.860
46, -104.29, 90.48, 228.62, -3084.82, 0.000, 0.000, 0.000, 18:29:37.860
47, -77.77, 94.65, 213.81, -3009.04, 0.000, 0.000, 0.000, 18:29:37.861
48, -77.47, 114.91, 227.84, -3029.72, 0.000, 0.000, 0.000, 18:29:37.861
49, -109.90, 110.70, 228.71, -3119.52, 0.000, 0.000, 0.000, 18:29:37.861
50, -109.62, 101.03, 225.44, -3035.63, 0.000, 0.000, 0.000, 18:29:37.861
51, -87.51, 91.37, 220.71, -3000.84, 0.000, 0.000, 0.000, 18:29:37.862
52, -88.45, 101.42, 211.66, -3086.08, 0.000, 0.000, 0.000, 18:29:37.862
53, -73.29, 120.42, 213.20, -3238.09, 0.000, 0.000, 0.000, 18:29:37.875
54, -125.42, 95.26, 222.15, -3030.84, 0.000, 0.000, 0.000, 18:29:37.875
55, -79.22, 94.12, 223.89, -3021.61, 0.000, 0.000, 0.000, 18:29:37.890
56, -84.43, 107.49, 216.35, -3110.77, 0.000, 0.000, 0.000, 18:29:37.890
57, -124.03, 104.70, 214.68, -3132.38, 0.000, 0.000, 0.000, 18:29:37.905
58, -112.94, 90.65, 217.31, -3091.92, 0.000, 0.000, 0.000, 18:29:37.905
59, -91.97, 86.63, 206.39, -3051.85, 0.000, 0.000, 0.000, 18:29:37.906
60, -97.36, 97.95, 210.46, -3067.65, 0.000, 0.000, 0.000, 18:29:37.906
61, -119.76, 103.34, 215.73, -3148.19, 0.000, 0.000, 0.000, 18:29:37.920
62, -113.27, 87.04, 205.32, -3141.44, 0.000, 0.000, 0.000, 18:29:37.920
63, -87.02, 84.22, 216.37, -3020.34, 0.000, 0.000, 0.000, 18:29:37.935
64, -89.23, 97.90, 214.40, -3096.73, 0.000, 0.000, 0.000, 18:29:37.935
65, -111.90, 102.02, 214.60, -3179.10, 0.000, 0.000, 0.000, 18:29:37.936
66, -118.96, 84.32, 216.22, -3089.38, 0.000, 0.000, 0.000, 18:29:37.936
67, -84.56, 85.31, 215.36, -3043.39, 0.000, 0.000, 0.000, 18:29:37.950
68, -79.24, 103.77, 207.44, -3149.82, 0.000, 0.000, 0.000, 18:29:37.950
69, -128.19, 97.72, 213.74, -3133.53, 0.000, 0.000, 0.000, 18:29:37.965
70, -122.38, 82.48, 211.64, -3080.52, 0.000, 0.000, 0.000, 18:29:37.965
71, -75.70, 94.79, 214.96, -3042.77, 0.000, 0.000, 0.000, 18:29:37.966
72, -79.10, 111.46, 219.72, -3092.57, 0.000, 0.000, 0.000, 18:29:37.966
73, -111.62, 107.35, 222.88, -3134.57, 0.000, 0.000, 0.000, 18:29:37.980
74, -98.58, 96.88, 214.50, -3121.15, 0.000, 0.000, 0.000, 18:29:37.980
75, -95.50, 77.25, 204.80, -3035.00, 0.000, 0.000, 0.000, 18:29:37.995
76, -88.16, 100.99, 213.43, -3089.24, 0.000, 0.000, 0.000, 18:29:37.995
77, -109.57, 117.22, 222.83, -3126.31, 0.000, 0.000, 0.000, 18:29:37.996
78, -120.54, 96.42, 226.01, -3041.74, 0.000, 0.000, 0.000, 18:29:37.996
79, -80.64, 93.41, 231.13, -2985.54, 0.000, 0.000, 0.000, 18:29:38.010
80, -75.56, 106.27, 219.96, -3093.18, 0.000, 0.000, 0.000, 18:29:38.010
81, -111.18, 110.25, 233.53, -3096.54, 0.000, 0.000, 0.000, 18:29:38.025
82, -103.43, 97.78, 232.34, -3047.40, 0.000, 0.000, 0.000, 18:29:38.025
83, -78.13, 91.55, 222.05, -3009.67, 0.000, 0.000, 0.000, 18:29:38.026
84, -83.47, 104.83, 231.60, -3042.63, 0.000, 0.000, 0.000, 18:29:38.026
85, -115.50, 104.42, 227.85, -3104.80, 0.000, 0.000, 0.000, 18:29:38.040
86, -96.86, 97.81, 231.41, -3084.19, 0.000, 0.000, 0.000, 18:29:38.040
87, -84.14, 86.03, 222.71, -2970.71, 0.000, 0.000, 0.000, 18:29:38.055
88, -86.45, 99.50, 223.00, -3064.26, 0.000, 0.000, 0.000, 18:29:38.055
89, -100.79, 113.27, 235.91, -3130.55, 0.000, 0.000, 0.000, 18:29:38.056
90, -102.00, 99.93, 239.33, -3033.26, 0.000, 0.000, 0.000, 18:29:38.056
91, -72.50, 94.17, 234.37, -2986.75, 0.000, 0.000, 0.000, 18:29:38.070
92, -66.87, 109.78, 228.29, -3080.20, 0.000, 0.000, 0.000, 18:29:38.070
93, -116.11, 109.23, 234.48, -3094.74, 0.000, 0.000, 0.000, 18:29:38.085
94, -105.50, 96.85, 232.43, -3063.59, 0.000, 0.000, 0.000, 18:29:38.085
95, -69.97, 97.78, 222.83, -3065.66, 0.000, 0.000, 0.000, 18:29:38.086
96, -69.74, 120.77, 233.93, -3058.38, 0.000, 0.000, 0.000, 18:29:38.086
97, -100.80, 115.23, 229.69, -3145.11, 0.000, 0.000, 0.000, 18:29:38.100
98, -95.91, 99.34, 216.10, -3131.49, 0.000, 0.000, 0.000, 18:29:38.100
99, -77.24, 88.54, 216.95, -3014.84, 0.000, 0.000, 0.000, 18:29:38.115
100, -82.05, 105.17, 215.93, -3073.74, 0.000, 0.000, 0.000, 18:29:38.115
101, -108.74, 117.12, 221.75, -3150.07, 0.000, 0.000, 0.000, 18:29:38.116
102, -118.65, 91.38, 220.99, -3079.87, 0.000, 0.000, 0.000, 18:29:38.116
103, -84.61, 87.12, 206.41, -3049.22, 0.000, 0.000, 0.000, 18:29:38.130
104, -72.65, 112.13, 209.60, -3127.35, 0.000, 0.000, 0.000, 18:29:38.130
105, -117.86, 109.33, 221.53, -3120.78, 0.000, 0.000, 0.000, 18:29:38.145
106, -113.19, 93.91, 218.12, -3091.24, 0.000, 0.000, 0.000, 18:29:38.145
107, -76.05, 98.91, 212.83, -3065.24, 0.000, 0.000, 0.000, 18:29:38.146
108, -79.46, 110.81, 217.21, -3053.85, 0.000, 0.000, 0.000, 18:29:38.146
109, -100.53, 118.03, 230.30, -3135.43, 0.000, 0.000, 0.000, 18:29:38.175
110, -97.94, 102.79, 217.41, -3123.43, 0.000, 0.000, 0.000, 18:29:38.175
111, -77.77, 96.61, 219.49, -3018.33, 0.000, 0.000, 0.000, 18:29:38.175
112, -83.38, 106.32, 218.80, -3081.67, 0.000, 0.000, 0.000, 18:29:38.176
113, -109.23, 109.98, 221.28, -3131.15, 0.000, 0.000, 0.000, 18:29:38.176
114, -104.41, 99.10, 222.18, -3099.25, 0.000, 0.000, 0.000, 18:29:38.177
115, -75.42, 97.12, 215.16, -3047.97, 0.000, 0.000, 0.000, 18:29:38.190
116, -52.24, 116.82, 209.98, -3180.40, 0.000, 0.000, 0.000, 18:29:38.190
117, -111.41, 115.06, 231.15, -3102.54, 0.000, 0.000, 0.000, 18:29:38.205
118, -106.08, 98.40, 230.95, -3082.37, 0.000, 0.000, 0.000, 18:29:38.205
119, -79.99, 87.85, 209.98, -3052.12, 0.000, 0.000, 0.000, 18:29:38.205
120, -72.87, 103.83, 220.83, -3091.35, 0.000, 0.000, 0.000, 18:29:38.206
121, -107.27, 104.68, 217.02, -3162.41, 0.000, 0.000, 0.000, 18:29:38.220
122, -98.87, 100.08, 215.89, -3127.91, 0.000, 0.000, 0.000, 18:29:38.220
123, -77.18, 92.45, 222.91, -3032.08, 0.000, 0.000, 0.000, 18:29:38.235
124, -85.94, 102.70, 220.03, -3068.98, 0.000, 0.000, 0.000, 18:29:38.238
125, -96.93, 121.83, 231.01, -3133.73, 0.000, 0.000, 0.000, 18:29:38.238
126, -103.46, 100.44, 239.83, -3067.94, 0.000, 0.000, 0.000, 18:29:38.238
127, -77.77, 88.32, 227.35, -2997.41, 0.000, 0.000, 0.000, 18:29:38.250
128, -73.50, 101.44, 217.85, -3125.92, 0.000, 0.000, 0.000, 18:29:38.250
129, -109.20, 108.95, 229.80, -3114.84, 0.000, 0.000, 0.000, 18:29:38.265
130, -116.75, 85.94, 226.66, -3057.45, 0.000, 0.000, 0.000, 18:29:38.265
131, -75.73, 91.50, 219.46, -3047.65, 0.000, 0.000, 0.000, 18:29:38.266
132, -86.93, 99.99, 219.79, -3076.97, 0.000, 0.000, 0.000, 18:29:38.266
133, -114.28, 102.97, 220.80, -3156.54, 0.000, 0.000, 0.000, 18:29:38.280
134, -105.84, 92.10, 211.73, -3135.15, 0.000, 0.000, 0.000, 18:29:38.280
135, -90.85, 84.70, 214.77, -3022.28, 0.000, 0.000, 0.000, 18:29:38.295
136, -81.57, 104.59, 226.62, -3087.10, 0.000, 0.000, 0.000, 18:29:38.295
137, -102.07, 113.34, 228.13, -3163.89, 0.000, 0.000, 0.000, 18:29:38.296
138, -109.45, 93.93, 226.13, -3072.87, 0.000, 0.000, 0.000, 18:29:38.296
139, -73.01, 93.84, 227.36, -3038.60, 0.000, 0.000, 0.000, 18:29:38.310
140, -71.63, 106.62, 216.98, -3107.72, 0.000, 0.000, 0.000, 18:29:38.310
141, -115.95, 107.12, 231.01, -3119.07, 0.000, 0.000, 0.000, 18:29:38.325
142, -104.71, 100.36, 238.22, -3054.46, 0.000, 0.000, 0.000, 18:29:38.325
143, -77.12, 88.62, 221.56, -3042.89, 0.000, 0.000, 0.000, 18:29:38.326
144, -77.77, 101.57, 226.86, -3057.10, 0.000, 0.000, 0.000, 18:29:38.326
145, -100.03, 117.15, 240.75, -3108.10, 0.000, 0.000, 0.000, 18:29:38.340
146, -95.86, 101.15, 229.73, -3097.92, 0.000, 0.000, 0.000, 18:29:38.340
147, -85.71, 88.75, 227.25, -2993.11, 0.000, 0.000, 0.000, 18:29:38.355
148, -78.59, 109.73, 227.04, -3053.22, 0.000, 0.000, 0.000, 18:29:38.355
149, -103.49, 109.25, 232.27, -3139.42, 0.000, 0.000, 0.000, 18:29:38.356
150, -108.40, 94.24, 229.94, -3046.31, 0.000, 0.000, 0.000, 18:29:38.356
151, -84.12, 84.39, 221.36, -3025.47, 0.000, 0.000, 0.000, 18:29:38.370
152, -74.83, 105.81, 214.89, -3112.69, 0.000, 0.000, 0.000, 18:29:38.370
153, -125.14, 100.84, 223.26, -3104.78, 0.000, 0.000, 0.000, 18:29:38.385
154, -114.60, 94.50, 229.11, -3070.80, 0.000, 0.000, 0.000, 18:29:38.385
155, -87.20, 92.15, 213.43, -3028.83, 0.000, 0.000, 0.000, 18:29:38.386
156, -88.65, 100.87, 219.05, -3050.29, 0.000, 0.000, 0.000, 18:29:38.386
157, -107.34, 111.71, 231.91, -3130.76, 0.000, 0.000, 0.000, 18:29:38.400
158, -111.56, 89.67, 215.71, -3115.97, 0.000, 0.000, 0.000, 18:29:38.400
159, -91.52, 85.23, 214.36, -3027.03, 0.000, 0.000, 0.000, 18:29:38.415
160, -80.33, 106.92, 225.50, -3066.44, 0.000, 0.000, 0.000, 18:29:38.415
161, -111.85, 107.52, 220.05, -3155.45, 0.000, 0.000, 0.000, 18:29:38.416
162, -114.50, 92.34, 221.24, -3089.58, 0.000, 0.000, 0.000, 18:29:38.416
163, -89.92, 88.07, 216.44, -3015.96, 0.000, 0.000, 0.000, 18:29:38.430
164, -81.10, 99.30, 209.53, -3109.13, 0.000, 0.000, 0.000, 18:29:38.430
165, -116.45, 109.29, 227.37, -3133.05, 0.000, 0.000, 0.000, 18:29:38.445
166, -123.42, 87.65, 219.29, -3080.73, 0.000, 0.000, 0.000, 18:29:38.445
167, -87.34, 88.58, 215.43, -3036.17, 0.000, 0.000, 0.000, 18:29:38.446
168, -95.48, 96.56, 218.91, -3050.00, 0.000, 0.000, 0.000, 18:29:38.446
169, -125.69, 102.69, 220.55, -3130.45, 0.000, 0.000, 0.000, 18:29:38.460
170, -110.51, 91.66, 214.86, -3125.27, 0.000, 0.000, 0.000, 18:29:38.460
171, -92.12, 84.15, 221.83, -2999.66, 0.000, 0.000, 0.000, 18:29:38.475
172, -81.38, 99.07, 225.26, -3073.19, 0.000, 0.000, 0.000, 18:29:38.475
173, -104.90, 111.54, 225.86, -3160.58, 0.000, 0.000, 0.000, 18:29:38.476
174, -112.41, 94.28, 227.07, -3068.92, 0.000, 0.000, 0.000, 18:29:38.476
175, -82.63, 89.96, 221.16, -3021.79, 0.000, 0.000, 0.000, 18:29:38.505
176, -66.58, 108.65, 219.14, -3105.11, 0.000, 0.000, 0.000, 18:29:38.505
177, -111.62, 104.70, 227.34, -3118.90, 0.000, 0.000, 0.000, 18:29:38.506
178, -106.93, 99.31, 221.96, -3085.84, 0.000, 0.000, 0.000, 18:29:38.506
179, -77.13, 90.47, 219.12, -3033.39, 0.000, 0.000, 0.000, 18:29:38.507
180, -88.23, 91.79, 210.26, -3080.45, 0.000, 0.000, 0.000, 18:29:38.507
181, -113.00, 100.52, 217.36, -3159.79, 0.000, 0.000, 0.000, 18:29:38.520
182, -95.31, 99.40, 201.55, -3207.82, 0.000, 0.000, 0.000, 18:29:38.520
183, -93.76, 81.82, 210.84, -3037.84, 0.000, 0.000, 0.000, 18:29:38.535
184, -74.46, 102.40, 220.32, -3076.19, 0.000, 0.000, 0.000, 18:29:38.535
185, -94.40, 117.40, 224.14, -3165.99, 0.000, 0.000, 0.000, 18:29:38.536
186, -106.90, 98.14, 224.13, -3092.58, 0.000, 0.000, 0.000, 18:29:38.536
187, -81.63, 87.39, 213.79, -3054.42, 0.000, 0.000, 0.000, 18:29:38.550
188, -68.27, 109.22, 212.82, -3123.91, 0.000, 0.000, 0.000, 18:29:38.550
189, -110.78, 112.06, 227.89, -3132.75, 0.000, 0.000, 0.000, 18:29:38.565
190, -112.12, 93.31, 225.33, -3097.19, 0.000, 0.000, 0.000, 18:29:38.565
191, -90.16, 84.30, 206.92, -3041.65, 0.000, 0.000, 0.000, 18:29:38.566
192, -83.17, 102.03, 215.45, -3086.24, 0.000, 0.000, 0.000, 18:29:38.566
193, -116.46, 96.13, 214.39, -3152.71, 0.000, 0.000, 0.000, 18:29:38.580
194, -103.15, 89.75, 214.80, -3153.25, 0.000, 0.000, 0.000, 18:29:38.580
195, -92.64, 85.73, 210.45, -3030.67, 0.000, 0.000, 0.000, 18:29:38.595
196, -84.53, 106.34, 219.17, -3064.35, 0.000, 0.000, 0.000, 18:29:38.595
197, -103.82, 106.88, 220.41, -3183.05, 0.000, 0.000, 0.000, 18:29:38.596
198, -119.06, 88.12, 215.00, -3092.84, 0.000, 0.000, 0.000, 18:29:38.596
199, -85.34, 84.59, 215.92, -3047.97, 0.000, 0.000, 0.000, 18:29:38.610
200, -65.73, 106.73, 220.72, -3112.95, 0.000, 0.000, 0.000, 18:29:38.610
0, -122.24, 100.12, 219.15, -3108.18, 0.000, 0.000, 0.000, 18:29:38.611
1, -117.53, 92.41, 224.39, -3085.39, 0.000, 0.000, 0.000, 18:29:38.625
2, -78.96, 88.79, 214.83, -3061.84, 0.000, 0.000, 0.000, 18:29:38.625
3, -91.06, 97.58, 213.63, -3065.18, 0.000, 0.000, 0.000, 18:29:38.640
4, -106.25, 113.42, 231.82, -3122.46, 0.000, 0.000, 0.000, 18:29:38.640
5, -107.10, 99.20, 231.74, -3087.10, 0.000, 0.000, 0.000, 18:29:38.641
6, -77.77, 96.82, 233.14, -3011.89, 0.000, 0.000, 0.000, 18:29:38.641
7, -76.75, 106.66, 227.33, -3082.41, 0.000, 0.000, 0.000, 18:29:38.655
8, -94.74, 123.87, 226.72, -3158.84, 0.000, 0.000, 0.000, 18:29:38.655
9, -121.35, 91.93, 225.39, -3055.80, 0.000, 0.000, 0.000, 18:29:38.671
10, -81.08, 89.21, 222.15, -3040.05, 0.000, 0.000, 0.000, 18:29:38.671
11, -76.88, 108.48, 219.12, -3078.03, 0.000, 0.000, 0.000, 18:29:38.671
12, -110.78, 113.73, 228.84, -3108.51, 0.000, 0.000, 0.000, 18:29:38.671
13, -113.97, 93.21, 227.18, -3095.08, 0.000, 0.000, 0.000, 18:29:38.685
14, -72.97, 89.66, 215.92, -3075.55, 0.000, 0.000, 0.000, 18:29:38.688
15, -74.92, 108.03, 228.25, -3061.39, 0.000, 0.000, 0.000, 18:29:38.700
16, -105.99, 111.61, 223.46, -3116.61, 0.000, 0.000, 0.000, 18:29:38.700
17, -105.33, 96.55, 223.25, -3101.85, 0.000, 0.000, 0.000, 18:29:38.701
18, -77.23, 92.88, 227.62, -3036.43, 0.000, 0.000, 0.000, 18:29:38.701
19, -82.44, 99.47, 220.26, -3053.90, 0.000, 0.000, 0.000, 18:29:38.715
20, -93.74, 107.99, 214.11, -3204.71, 0.000, 0.000, 0.000, 18:29:38.715
21, -117.92, 89.69, 217.45, -3099.73, 0.000, 0.000, 0.000, 18:29:38.730
22, -81.68, 82.38, 213.28, -3054.68, 0.000, 0.000, 0.000, 18:29:38.730
23, -72.70, 112.00, 222.27, -3083.17, 0.000, 0.000, 0.000, 18:29:38.731
24, -118.00, 100.89, 218.00, -3105.40, 0.000, 0.000, 0.000, 18:29:38.731
25, -114.99, 91.36, 222.06, -3099.63, 0.000, 0.000, 0.000, 18:29:38.745
26, -74.62, 85.64, 209.09, -3074.11, 0.000, 0.000, 0.000, 18:29:38.745
27, -84.05, 99.19, 215.29, -3082.61, 0.000, 0.000, 0.000, 18:29:38.760
28, -110.48, 111.22, 221.83, -3120.27, 0.000, 0.000, 0.000, 18:29:38.760
29, -111.87, 95.09, 215.93, -3124.74, 0.000, 0.000, 0.000, 18:29:38.760
30, -86.78, 82.71, 214.83, -3036.54, 0.000, 0.000, 0.000, 18:29:38.761
31, -81.43, 102.66, 214.01, -3076.70, 0.000, 0.000, 0.000, 18:29:38.775
32, -100.07, 112.64, 214.18, -3212.62, 0.000, 0.000, 0.000, 18:29:38.775
33, -112.26, 94.02, 220.65, -3096.33, 0.000, 0.000, 0.000, 18:29:38.790
34, -84.18, 87.98, 214.95, -3033.61, 0.000, 0.000, 0.000, 18:29:38.790
35, -79.71, 103.33, 212.56, -3096.28, 0.000, 0.000, 0.000, 18:29:38.791
36, -104.55, 112.86, 226.57, -3136.94, 0.000, 0.000, 0.000, 18:29:38.791
37, -111.47, 94.79, 223.15, -3110.71, 0.000, 0.000, 0.000, 18:29:38.820
38, -68.73, 93.60, 216.44, -3083.23, 0.000, 0.000, 0.000, 18:29:38.820
39, -83.97, 104.71, 216.62, -3041.08, 0.000, 0.000, 0.000, 18:29:38.820
40, -116.43, 107.56, 222.81, -3119.20, 0.000, 0.000, 0.000, 18:29:38.820
41, -106.26, 102.81, 235.42, -3067.91, 0.000, 0.000, 0.000, 18:29:38.821
42, -85.80, 87.62, 222.36, -3010.52, 0.000, 0.000, 0.000, 18:29:38.821
43, -79.56, 107.62, 228.97, -3058.27, 0.000, 0.000, 0.000, 18:29:38.835
44, -94.54, 104.78, 213.21, -3209.98, 0.000, 0.000, 0.000, 18:29:38.835
45, -123.00, 89.11, 224.94, -3060.74, 0.000, 0.000, 0.000, 18:29:38.850
46, -92.02, 81.85, 219.52, -3017.97, 0.000, 0.000, 0.000, 18:29:38.850
47, -89.50, 100.84, 214.52, -3059.94, 0.000, 0.000, 0.000, 18:29:38.851
48, -116.12, 105.10, 228.28, -3119.87, 0.000, 0.000, 0.000, 18:29:38.851
49, -107.75, 94.65, 229.26, -3103.66, 0.000, 0.000, 0.000, 18:29:38.865
50, -73.41, 94.59, 219.22, -3056.61, 0.000, 0.000, 0.000, 18:29:38.866
51, -87.00, 100.54, 220.50, -3048.25, 0.000, 0.000, 0.000, 18:29:38.880
52, -106.14, 113.94, 232.92, -3114.76, 0.000, 0.000, 0.000, 18:29:38.880
53, -104.75, 103.03, 226.14, -3099.35, 0.000, 0.000, 0.000, 18:29:38.881
54, -89.34, 88.58, 220.97, -3025.83, 0.000, 0.000, 0.000, 18:29:38.881
55, -81.90, 107.17, 221.25, -3063.00, 0.000, 0.000, 0.000, 18:29:38.895
56, -100.30, 115.31, 227.67, -3157.35, 0.000, 0.000, 0.000, 18:29:38.895
57, -113.29, 99.47, 233.10, -3070.36, 0.000, 0.000, 0.000, 18:29:38.910
58, -88.76, 88.98, 214.96, -3016.77, 0.000, 0.000, 0.000, 18:29:38.910
59, -74.32, 108.15, 220.09, -3083.04, 0.000, 0.000, 0.000, 18:29:38.911
60, -111.17, 109.32, 223.90, -3116.75, 0.000, 0.000, 0.000, 18:29:38.911
61, -110.40, 99.30, 225.09, -3110.53, 0.000, 0.000, 0.000, 18:29:38.925
62, -70.71, 91.80, 217.27, -3071.47, 0.000, 0.000, 0.000, 18:29:38.925
63, -77.71, 109.10, 222.96, -3057.22, 0.000, 0.000, 0.000, 18:29:38.940
64, -101.27, 117.62, 227.54, -3144.18, 0.000, 0.000, 0.000, 18:29:38.940
65, -114.76, 97.13, 214.23, -3123.18, 0.000, 0.000, 0.000, 18:29:38.941
66, -90.24, 88.19, 213.42, -3020.65, 0.000, 0.000, 0.000, 18:29:38.941
67, -76.91, 102.89, 218.31, -3075.44, 0.000, 0.000, 0.000, 18:29:38.955
68, -98.42, 110.29, 216.81, -3183.51, 0.000, 0.000, 0.000, 18:29:38.955
69, -112.86, 95.53, 216.33, -3099.90, 0.000, 0.000, 0.000, 18:29:38.970
70, -84.71, 84.93, 211.14, -3048.18, 0.000, 0.000, 0.000, 18:29:38.970
71, -76.74, 100.03, 212.81, -3093.88, 0.000, 0.000, 0.000, 18:29:38.971
72, -108.79, 110.47, 224.47, -3116.48, 0.000, 0.000, 0.000, 18:29:38.971
73, -120.35, 92.09, 225.47, -3082.23, 0.000, 0.000, 0.000, 18:29:38.985
74, -71.12, 91.77, 215.61, -3078.97, 0.000, 0.000, 0.000, 18:29:38.985
75, -85.56, 97.10, 214.74, -3054.07, 0.000, 0.000, 0.000, 18:29:39.000
76, -110.80, 109.03, 224.86, -3118.03, 0.000, 0.000, 0.000, 18:29:39.000
77, -116.69, 97.45, 222.03, -3090.97, 0.000, 0.000, 0.000, 18:29:39.001
78, -85.88, 88.53, 226.22, -2988.42, 0.000, 0.000, 0.000, 18:29:39.001
79, -87.78, 98.40, 224.87, -3034.73, 0.000, 0.000, 0.000, 18:29:39.015
80, -103.28, 111.35, 222.34, -3162.80, 0.000, 0.000, 0.000, 18:29:39.015
81, -113.79, 99.06, 234.28, -3070.20, 0.000, 0.000, 0.000, 18:29:39.030
82, -79.52, 87.03, 225.06, -3050.79, 0.000, 0.000, 0.000, 18:29:39.030
83, -65.31, 106.56, 220.54, -3099.50, 0.000, 0.000, 0.000, 18:29:39.031
84, -103.66, 110.38, 232.25, -3121.42, 0.000, 0.000, 0.000, 18:29:39.031
85, -113.02, 96.36, 221.23, -3085.65, 0.000, 0.000, 0.000, 18:29:39.045
86, -72.96, 91.26, 212.50, -3084.36, 0.000, 0.000, 0.000, 18:29:39.045
87, -84.32, 96.37, 214.29, -3063.44, 0.000, 0.000, 0.000, 18:29:39.060
88, -111.51, 106.65, 222.67, -3136.72, 0.000, 0.000, 0.000, 18:29:39.060
89, -111.59, 97.24, 223.24, -3102.02, 0.000, 0.000, 0.000, 18:29:39.061
90, -93.58, 86.47, 220.29, -3008.81, 0.000, 0.000, 0.000, 18:29:39.061
91, -82.40, 98.78, 215.26, -3074.97, 0.000, 0.000, 0.000, 18:29:39.075
92, -96.92, 120.74, 223.00, -3153.85, 0.000, 0.000, 0.000, 18:29:39.075
93, -119.20, 88.77, 224.08, -3094.82, 0.000, 0.000, 0.000, 18:29:39.090
94, -87.23, 88.53, 224.39, -3021.31, 0.000, 0.000, 0.000, 18:29:39.090
95, -75.10, 106.04, 224.03, -3053.70, 0.000, 0.000, 0.000, 18:29:39.091
96, -109.85, 112.35, 230.74, -3082.48, 0.000, 0.000, 0.000, 18:29:39.091
97, -122.32, 92.53, 229.25, -3059.90, 0.000, 0.000, 0.000, 18:29:39.105
98, -76.04, 92.36, 212.40, -3075.52, 0.000, 0.000, 0.000, 18:29:39.105
99, -81.52, 100.30, 221.14, -3050.97, 0.000, 0.000, 0.000, 18:29:39.135
100, -110.50, 109.86, 217.01, -3136.76, 0.000, 0.000, 0.000, 18:29:39.137
101, -116.75, 89.00, 210.58, -3119.51, 0.000, 0.000, 0.000, 18:29:39.137
102, -90.95, 87.02, 213.96, -3005.59, 0.000, 0.000, 0.000, 18:29:39.137
103, -87.11, 96.14, 210.61, -3084.02, 0.000, 0.000, 0.000, 18:29:39.137
104, -113.55, 108.05, 217.21, -3128.49, 0.000, 0.000, 0.000, 18:29:39.137
105, -115.11, 92.94, 223.81, -3089.66, 0.000, 0.000, 0.000, 18:29:39.137
106, -86.04, 90.33, 220.27, -3032.55, 0.000, 0.000, 0.000, 18:29:39.137
107, -41.52, 111.15, 201.02, -3201.59, 0.000, 0.000, 0.000, 18:29:39.150
108, -123.91, 105.38, 217.99, -3112.79, 0.000, 0.000, 0.000, 18:29:39.150
109, -122.44, 93.37, 220.55, -3077.69, 0.000, 0.000, 0.000, 18:29:39.165
110, -95.22, 81.44, 209.29, -3025.83, 0.000, 0.000, 0.000, 18:29:39.165
111, -85.23, 101.52, 225.43, -3021.40, 0.000, 0.000, 0.000, 18:29:39.180
112, -107.87, 107.06, 225.69, -3118.03, 0.000, 0.000, 0.000, 18:29:39.180
113, -112.29, 97.05, 221.70, -3132.05, 0.000, 0.000, 0.000, 18:29:39.181
114, -89.19, 92.30, 218.98, -3014.60, 0.000, 0.000, 0.000, 18:29:39.181
115, -73.89, 106.71, 222.05, -3066.22, 0.000, 0.000, 0.000, 18:29:39.195
116, -89.82, 117.88, 218.83, -3189.55, 0.000, 0.000, 0.000, 18:29:39.195
117, -115.47, 96.04, 223.66, -3082.23, 0.000, 0.000, 0.000, 18:29:39.211
118, -84.36, 91.55, 217.17, -3003.81, 0.000, 0.000, 0.000, 18:29:39.211
119, -77.18, 101.89, 215.24, -3061.65, 0.000, 0.000, 0.000, 18:29:39.211
120, -109.18, 109.55, 225.88, -3094.40, 0.000, 0.000, 0.000, 18:29:39.211
121, -121.82, 88.10, 220.32, -3082.55, 0.000, 0.000, 0.000, 18:29:39.225
122, -91.20, 80.28, 205.68, -3066.52, 0.000, 0.000, 0.000, 18:29:39.225
123, -83.82, 100.47, 217.83, -3050.47, 0.000, 0.000, 0.000, 18:29:39.240
124, -116.11, 97.88, 220.64, -3122.16, 0.000, 0.000, 0.000, 18:29:39.240
125, -112.89, 92.12, 220.85, -3102.85, 0.000, 0.000, 0.000, 18:29:39.241
126, -86.89, 86.16, 220.35, -3031.12, 0.000, 0.000, 0.000, 18:29:39.241
127, -74.17, 101.72, 214.51, -3087.70, 0.000, 0.000, 0.000, 18:29:39.255
128, -99.53, 112.05, 209.06, -3183.82, 0.000, 0.000, 0.000, 18:29:39.255
129, -113.87, 94.23, 220.04, -3095.96, 0.000, 0.000, 0.000, 18:29:39.270
130, -84.00, 87.99, 218.21, -3030.54, 0.000, 0.000, 0.000, 18:29:39.270
131, -76.84, 101.92, 218.99, -3056.11, 0.000, 0.000, 0.000, 18:29:39.285
132, -110.33, 111.83, 228.90, -3109.25, 0.000, 0.000, 0.000, 18:29:39.285
133, -107.75, 92.47, 222.88, -3112.74, 0.000, 0.000, 0.000, 18:29:39.286
134, -71.98, 96.56, 215.24, -3078.87, 0.000, 0.000, 0.000, 18:29:39.286
135, -75.83, 101.83, 225.41, -3039.24, 0.000, 0.000, 0.000, 18:29:39.300
136, -100.17, 109.10, 227.31, -3121.42, 0.000, 0.000, 0.000, 18:29:39.300
137, -94.35, 110.36, 231.28, -3141.15, 0.000, 0.000, 0.000, 18:29:39.301
138, -84.03, 87.70, 226.56, -3021.79, 0.000, 0.000, 0.000, 18:29:39.301
139, -74.30, 100.97, 220.22, -3070.44, 0.000, 0.000, 0.000, 18:29:39.315
140, -91.38, 118.26, 224.17, -3152.86, 0.000, 0.000, 0.000, 18:29:39.315
141, -110.86, 101.87, 233.31, -3072.01, 0.000, 0.000, 0.000, 18:29:39.330
142, -73.06, 97.78, 225.13, -3034.96, 0.000, 0.000, 0.000, 18:29:39.330
143, -68.54, 107.36, 222.06, -3097.25, 0.000, 0.000, 0.000, 18:29:39.331
144, -100.56, 112.28, 227.72, -3109.11, 0.000, 0.000, 0.000, 18:29:39.331
145, -114.71, 97.81, 224.32, -3118.28, 0.000, 0.000, 0.000, 18:29:39.345
146, -64.57, 99.75, 226.33, -3090.66, 0.000, 0.000, 0.000, 18:29:39.345
147, -70.90, 102.56, 226.78, -3049.10, 0.000, 0.000, 0.000, 18:29:39.360
148, -111.56, 106.01, 223.00, -3123.51, 0.000, 0.000, 0.000, 18:29:39.360
149, -121.42, 100.83, 221.55, -3084.37, 0.000, 0.000, 0.000, 18:29:39.361
150, -95.18, 87.29, 219.32, -3003.16, 0.000, 0.000, 0.000, 18:29:39.361
151, -79.80, 105.64, 216.64, -3061.02, 0.000, 0.000, 0.000, 18:29:39.375
152, -97.91, 113.32, 220.23, -3155.59, 0.000, 0.000, 0.000, 18:29:39.375
153, -116.13, 92.14, 226.29, -3088.63, 0.000, 0.000, 0.000, 18:29:39.390
154, -86.40, 81.17, 223.84, -3017.29, 0.000, 0.000, 0.000, 18:29:39.390
155, -72.42, 105.69, 221.87, -3038.42, 0.000, 0.000, 0.000, 18:29:39.391
156, -109.69, 110.41, 230.23, -3093.17, 0.000, 0.000, 0.000, 18:29:39.391
157, -112.33, 103.09, 227.04, -3107.15, 0.000, 0.000, 0.000, 18:29:39.405
158, -77.72, 99.28, 212.49, -3066.63, 0.000, 0.000, 0.000, 18:29:39.405
159, -76.26, 110.25, 224.30, -3023.40, 0.000, 0.000, 0.000, 18:29:39.420
160, -109.43, 110.07, 219.05, -3104.66, 0.000, 0.000, 0.000, 18:29:39.420
161, -112.89, 101.25, 221.94, -3104.16, 0.000, 0.000, 0.000, 18:29:39.421
162, -88.20, 91.90, 222.40, -2999.25, 0.000, 0.000, 0.000, 18:29:39.421
163, -83.95, 91.98, 214.72, -3044.08, 0.000, 0.000, 0.000, 18:29:39.435
164, -94.59, 112.41, 223.34, -3150.27, 0.000, 0.000, 0.000, 18:29:39.435
165, -115.88, 95.45, 232.73, -3068.74, 0.000, 0.000, 0.000, 18:29:39.465
166, -82.19, 91.78, 228.75, -3005.25, 0.000, 0.000, 0.000, 18:29:39.465
167, -77.91, 96.79, 218.30, -3065.04, 0.000, 0.000, 0.000, 18:29:39.465
168, -107.03, 112.46, 231.37, -3116.73, 0.000, 0.000, 0.000, 18:29:39.465
169, -104.98, 100.98, 230.65, -3101.97, 0.000, 0.000, 0.000, 18:29:39.466
170, -73.36, 104.51, 234.08, -3027.37, 0.000, 0.000, 0.000, 18:29:39.466
171, -79.47, 94.72, 221.46, -3033.37, 0.000, 0.000, 0.000, 18:29:39.467
172, -110.44, 106.98, 227.70, -3108.79, 0.000, 0.000, 0.000, 18:29:39.467
173, -78.60, 102.74, 211.47, -3237.69, 0.000, 0.000, 0.000, 18:29:39.480
174, -100.88, 86.06, 219.22, -3005.32, 0.000, 0.000, 0.000, 18:29:39.480
175, -84.57, 99.36, 219.22, -3040.77, 0.000, 0.000, 0.000, 18:29:39.495
176, -109.15, 109.89, 215.10, -3135.43, 0.000, 0.000, 0.000, 18:29:39.495
177, -125.72, 91.71, 215.91, -3109.67, 0.000, 0.000, 0.000, 18:29:39.510
178, -90.06, 88.87, 218.56, -3019.12, 0.000, 0.000, 0.000, 18:29:39.510
179, -71.41, 102.46, 211.03, -3096.35, 0.000, 0.000, 0.000, 18:29:39.511
180, -107.90, 104.92, 217.87, -3140.22, 0.000, 0.000, 0.000, 18:29:39.511
181, -111.28, 94.73, 219.41, -3115.91, 0.000, 0.000, 0.000, 18:29:39.525
182, -75.95, 93.23, 215.59, -3083.16, 0.000, 0.000, 0.000, 18:29:39.525
183, -83.13, 98.34, 214.29, -3043.65, 0.000, 0.000, 0.000, 18:29:39.540
184, -112.76, 106.15, 222.10, -3126.19, 0.000, 0.000, 0.000, 18:29:39.540
185, -112.98, 99.33, 216.82, -3123.54, 0.000, 0.000, 0.000, 18:29:39.541
186, -98.39, 82.26, 208.70, -3032.69, 0.000, 0.000, 0.000, 18:29:39.541
187, -87.54, 100.11, 214.61, -3053.28, 0.000, 0.000, 0.000, 18:29:39.555
188, -98.16, 112.27, 216.32, -3147.89, 0.000, 0.000, 0.000, 18:29:39.555
189, -114.22, 97.85, 228.62, -3098.72, 0.000, 0.000, 0.000, 18:29:39.570
190, -81.54, 82.20, 228.23, -3046.78, 0.000, 0.000, 0.000, 18:29:39.570
191, -79.01, 96.51, 215.90, -3077.61, 0.000, 0.000, 0.000, 18:29:39.571
192, -127.23, 109.71, 212.44, -3106.30, 0.000, 0.000, 0.000, 18:29:39.571
193, -104.28, 115.84, 238.35, -3083.91, 0.000, 0.000, 0.000, 18:29:39.585
194, -77.01, 99.45, 218.49, -3053.19, 0.000, 0.000, 0.000, 18:29:39.585
195, -86.43, 101.19, 221.35, -3008.90, 0.000, 0.000, 0.000, 18:29:39.600
196, -103.08, 113.97, 233.15, -3105.62, 0.000, 0.000, 0.000, 18:29:39.600
197, -104.74, 105.01, 234.52, -3123.16, 0.000, 0.000, 0.000, 18:29:39.601
198, -88.30, 90.67, 227.86, -3012.65, 0.000, 0.000, 0.000, 18:29:39.601
199, -83.43, 98.37, 218.84, -3046.62, 0.000, 0.000, 0.000, 18:29:39.615
200, -94.34, 113.69, 225.99, -3145.33, 0.000, 0.000, 0.000, 18:29:39.615
0, -117.85, 101.08, 234.67, -3059.20, 0.000, 0.000, 0.000, 18:29:39.616
1, -99.62, 81.31, 219.98, -3015.14, 0.000, 0.000, 0.000, 18:29:39.630
2, -79.28, 98.06, 213.80, -3070.22, 0.000, 0.000, 0.000, 18:29:39.630
3, -116.71, 101.79, 221.25, -3098.48, 0.000, 0.000, 0.000, 18:29:39.645
4, -122.77, 87.56, 218.59, -3094.71, 0.000, 0.000, 0.000, 18:29:39.645
5, -91.94, 81.01, 207.35, -3045.53, 0.000, 0.000, 0.000, 18:29:39.646
6, -91.58, 91.86, 211.22, -3021.26, 0.000, 0.000, 0.000, 18:29:39.646
7, -106.88, 113.11, 224.91, -3102.59, 0.000, 0.000, 0.000, 18:29:39.660
8, -119.64, 94.51, 209.14, -3134.85, 0.000, 0.000, 0.000, 18:29:39.660
9, -100.18, 82.40, 211.71, -3010.38, 0.000, 0.000, 0.000, 18:29:39.675
10, -91.32, 85.42, 209.54, -3038.03, 0.000, 0.000, 0.000, 18:29:39.675
11, -104.46, 106.27, 219.28, -3118.19, 0.000, 0.000, 0.000, 18:29:39.676
12, -120.09, 96.94, 229.51, -3069.26, 0.000, 0.000, 0.000, 18:29:39.676
13, -98.42, 75.69, 213.20, -3057.11, 0.000, 0.000, 0.000, 18:29:39.690
14, -63.40, 103.40, 212.39, -3119.84, 0.000, 0.000, 0.000, 18:29:39.690
15, -110.65, 108.80, 214.83, -3127.18, 0.000, 0.000, 0.000, 18:29:39.705
16, -120.94, 96.82, 215.36, -3104.46, 0.000, 0.000, 0.000, 18:29:39.705
17, -93.29, 82.87, 206.12, -3052.50, 0.000, 0.000, 0.000, 18:29:39.706
18, -86.88, 98.53, 215.31, -3045.74, 0.000, 0.000, 0.000, 18:29:39.706
19, -109.50, 104.33, 222.19, -3127.12, 0.000, 0.000, 0.000, 18:29:39.720
20, -98.32, 102.27, 222.90, -3148.33, 0.000, 0.000, 0.000, 18:29:39.720
21, -80.90, 89.41, 228.58, -3028.48, 0.000, 0.000, 0.000, 18:29:39.735
22, -77.08, 99.28, 225.16, -3034.16, 0.000, 0.000, 0.000, 18:29:39.735
23, -96.82, 111.86, 228.03, -3123.89, 0.000, 0.000, 0.000, 18:29:39.736
24, -117.22, 93.48, 222.55, -3106.58, 0.000, 0.000, 0.000, 18:29:39.736
25, -88.41, 82.23, 217.18, -3050.67, 0.000, 0.000, 0.000, 18:29:39.751
26, -65.24, 100.69, 212.19, -3117.75, 0.000, 0.000, 0.000, 18:29:39.751
27, -96.17, 106.48, 222.82, -3113.15, 0.000, 0.000, 0.000, 18:29:39.780
28, -112.73, 99.99, 227.55, -3100.05, 0.000, 0.000, 0.000, 18:29:39.780
29, -82.52, 88.21, 223.45, -3067.62, 0.000, 0.000, 0.000, 18:29:39.780
30, -72.51, 102.12, 227.63, -3045.99, 0.000, 0.000, 0.000, 18:29:39.781
31, -97.56, 112.48, 233.50, -3127.08, 0.000, 0.000, 0.000, 18:29:39.781
32, -122.92, 98.09, 226.71, -3085.89, 0.000, 0.000, 0.000, 18:29:39.781
33, -101.34, 86.73, 218.74, -2990.52, 0.000, 0.000, 0.000, 18:29:39.782
34, -87.22, 96.52, 217.94, -3012.52, 0.000, 0.000, 0.000, 18:29:39.782
35, -73.85, 121.63, 213.59, -3231.62, 0.000, 0.000, 0.000, 18:29:39.795
36, -129.95, 95.71, 224.22, -3085.33, 0.000, 0.000, 0.000, 18:29:39.795
37, -87.62, 98.25, 224.61, -3021.82, 0.000, 0.000, 0.000, 18:29:39.810
38, -75.19, 103.20, 215.87, -3073.12, 0.000, 0.000, 0.000, 18:29:39.810
39, -112.52, 105.15, 225.21, -3092.35, 0.000, 0.000, 0.000, 18:29:39.825
40, -125.40, 90.80, 220.58, -3078.87, 0.000, 0.000, 0.000, 18:29:39.825
41, -95.60, 89.23, 220.55, -3017.16, 0.000, 0.000, 0.000, 18:29:39.826
42, -93.64, 96.04, 218.58, -2994.29, 0.000, 0.000, 0.000, 18:29:39.826
43, -112.93, 106.53, 224.94, -3092.97, 0.000, 0.000, 0.000, 18:29:39.840
44, -104.86, 102.50, 226.95, -3133.79, 0.000, 0.000, 0.000, 18:29:39.840
45, -91.24, 87.66, 227.31, -3012.32, 0.000, 0.000, 0.000, 18:29:39.855
46, -83.85, 94.30, 219.60, -3047.56, 0.000, 0.000, 0.000, 18:29:39.855
47, -106.16, 108.97, 221.50, -3142.12, 0.000, 0.000, 0.000, 18:29:39.856
48, -127.67, 95.27, 224.08, -3091.60, 0.000, 0.000, 0.000, 18:29:39.856
49, -88.24, 86.55, 221.37, -3034.86, 0.000, 0.000, 0.000, 18:29:39.870
50, -64.95, 103.32, 214.85, -3097.82, 0.000, 0.000, 0.000, 18:29:39.870
51, -106.75, 107.89, 227.59, -3104.62, 0.000, 0.000, 0.000, 18:29:39.885
52, -125.99, 90.95, 220.06, -3106.30, 0.000, 0.000, 0.000, 18:29:39.885
53, -87.77, 84.78, 218.56, -3060.66, 0.000, 0.000, 0.000, 18:29:39.886
54, -80.93, 93.40, 225.20, -3052.86, 0.000, 0.000, 0.000, 18:29:39.886
55, -105.13, 104.36, 225.91, -3135.29, 0.000, 0.000, 0.000, 18:29:39.900
56, -106.48, 97.30, 218.85, -3166.06, 0.000, 0.000, 0.000, 18:29:39.900
57, -93.65, 82.72, 216.08, -3031.87, 0.000, 0.000, 0.000, 18:29:39.915
58, -70.71, 104.89, 229.56, -3034.85, 0.000, 0.000, 0.000, 18:29:39.915
59, -99.89, 108.60, 221.47, -3141.40, 0.000, 0.000, 0.000, 18:29:39.916
60, -116.14, 104.10, 229.99, -3105.88, 0.000, 0.000, 0.000, 18:29:39.916
61, -88.85, 93.52, 219.09, -3040.93, 0.000, 0.000, 0.000, 18:29:39.930
62, -69.19, 102.56, 217.74, -3061.62, 0.000, 0.000, 0.000, 18:29:39.930
63, -106.64, 108.08, 224.89, -3105.25, 0.000, 0.000, 0.000, 18:29:39.945
64, -116.96, 93.95, 222.88, -3130.15, 0.000, 0.000, 0.000, 18:29:39.945
65, -84.29, 96.94, 223.36, -3020.25, 0.000, 0.000, 0.000, 18:29:39.946
66, -81.47, 100.55, 223.97, -3011.39, 0.000, 0.000, 0.000, 18:29:39.946
67, -108.59, 107.31, 229.14, -3110.32, 0.000, 0.000, 0.000, 18:29:39.960
68, -105.43, 105.01, 224.83, -3128.73, 0.000, 0.000, 0.000, 18:29:39.960
69, -94.31, 92.00, 224.15, -3008.75, 0.000, 0.000, 0.000, 18:29:39.975
70, -81.14, 99.58, 221.95, -3046.43, 0.000, 0.000, 0.000, 18:29:39.975
71, -100.89, 109.63, 217.32, -3142.47, 0.000, 0.000, 0.000, 18:29:39.976
72, -123.56, 98.59, 226.77, -3074.70, 0.000, 0.000, 0.000, 18:29:39.976
73, -84.18, 93.49, 227.28, -3029.65, 0.000, 0.000, 0.000, 18:29:39.990
74, -54.98, 108.22, 218.61, -3109.43, 0.000, 0.000, 0.000, 18:29:39.990
75, -102.38, 113.53, 225.50, -3117.40, 0.000, 0.000, 0.000, 18:29:40.005
76, -110.40, 104.94, 227.62, -3142.25, 0.000, 0.000, 0.000, 18:29:40.005
77, -82.79, 91.22, 214.11, -3092.11, 0.000, 0.000, 0.000, 18:29:40.006
78, -63.98, 105.36, 224.22, -3057.43, 0.000, 0.000, 0.000, 18:29:40.006
79, -84.82, 111.65, 226.49, -3155.90, 0.000, 0.000, 0.000, 18:29:40.020
80, -93.12, 109.75, 225.26, -3153.24, 0.000, 0.000, 0.000, 18:29:40.020
81, -88.56, 93.02, 222.17, -3021.69, 0.000, 0.000, 0.000, 18:29:40.035
82, -77.05, 103.13, 222.45, -3044.02, 0.000, 0.000, 0.000, 18:29:40.035
83, -97.23, 116.10, 221.51, -3138.69, 0.000, 0.000, 0.000, 18:29:40.036
84, -113.86, 110.15, 234.56, -3077.64, 0.000, 0.000, 0.000, 18:29:40.036
85, -85.72, 94.38, 227.99, -3030.78, 0.000, 0.000, 0.000, 18:29:40.050
86, -58.62, 117.47, 218.65, -3085.91, 0.000, 0.000, 0.000, 18:29:40.050
87, -103.80, 114.15, 227.30, -3103.65, 0.000, 0.000, 0.000, 18:29:40.065
88, -112.04, 115.34, 232.17, -3099.06, 0.000, 0.000, 0.000, 18:29:40.065
89, -82.73, 102.01, 224.10, -3043.92, 0.000, 0.000, 0.000, 18:29:40.066
90, -68.42, 115.46, 224.74, -3020.62, 0.000, 0.000, 0.000, 18:29:40.066
91, -95.08, 136.80, 228.48, -3098.98, 0.000, 0.000, 0.000, 18:29:40.095
92, -100.69, 135.37, 228.72, -3101.87, 0.000, 0.000, 0.000, 18:29:40.095
93, -84.88, 130.58, 230.04, -2996.85, 0.000, 0.000, 0.000, 18:29:40.095
94, -54.55, 152.82, 240.42, -3021.11, 0.000, 0.000, 0.000, 18:29:40.095
95, -85.40, 163.13, 236.10, -3078.40, 0.000, 0.000, 0.000, 18:29:40.096
96, -93.03, 157.56, 237.03, -3076.28, 0.000, 0.000, 0.000, 18:29:40.097
97, -72.47, 160.94, 231.68, -2995.60, 0.000, 0.000, 0.000, 18:29:40.110
98, -35.54, 187.41, 223.35, -3067.58, 0.000, 0.000, 0.000, 18:29:40.110
99, -81.21, 184.53, 243.98, -3052.15, 0.000, 0.000, 0.000, 18:29:40.125
100, -94.63, 171.85, 243.24, -3037.87, 0.000, 0.000, 0.000, 18:29:40.125
101, -71.45, 163.51, 232.43, -2986.46, 0.000, 0.000, 0.000, 18:29:40.126
102, -60.40, 159.29, 234.16, -2979.57, 0.000, 0.000, 0.000, 18:29:40.126
103, -92.56, 163.18, 239.15, -3036.61, 0.000, 0.000, 0.000, 18:29:40.140
104, -97.19, 151.93, 235.04, -3082.60, 0.000, 0.000, 0.000, 18:29:40.140
105, -85.48, 125.44, 236.30, -2969.76, 0.000, 0.000, 0.000, 18:29:40.155
106, -75.27, 125.41, 228.96, -2997.00, 0.000, 0.000, 0.000, 18:29:40.155
107, -96.22, 130.75, 223.12, -3107.43, 0.000, 0.000, 0.000, 18:29:40.156
108, -115.99, 114.07, 235.09, -3080.57, 0.000, 0.000, 0.000, 18:29:40.156
109, -87.26, 91.20, 223.96, -3043.10, 0.000, 0.000, 0.000, 18:29:40.170
110, -57.66, 108.99, 224.71, -3083.48, 0.000, 0.000, 0.000, 18:29:40.170
111, -101.37, 107.71, 228.91, -3113.01, 0.000, 0.000, 0.000, 18:29:40.185
112, -118.01, 89.52, 230.01, -3128.95, 0.000, 0.000, 0.000, 18:29:40.185
113, -84.46, 80.13, 220.68, -3065.93, 0.000, 0.000, 0.000, 18:29:40.186
114, -80.56, 79.62, 220.85, -3045.21, 0.000, 0.000, 0.000, 18:29:40.186
115, -111.00, 90.16, 219.66, -3131.78, 0.000, 0.000, 0.000, 18:29:40.200
116, -110.86, 87.85, 221.01, -3162.54, 0.000, 0.000, 0.000, 18:29:40.200
117, -99.59, 71.86, 215.85, -3068.03, 0.000, 0.000, 0.000, 18:29:40.215
118, -71.21, 90.21, 222.85, -3067.83, 0.000, 0.000, 0.000, 18:29:40.215
119, -105.37, 89.11, 216.46, -3177.68, 0.000, 0.000, 0.000, 18:29:40.216
120, -127.47, 72.97, 219.26, -3124.03, 0.000, 0.000, 0.000, 18:29:40.216
121, -102.45, 66.89, 219.19, -3035.74, 0.000, 0.000, 0.000, 18:29:40.230
122, -71.15, 86.69, 216.73, -3085.93, 0.000, 0.000, 0.000, 18:29:40.230
123, -98.04, 93.78, 232.23, -3121.36, 0.000, 0.000, 0.000, 18:29:40.245
124, -121.68, 74.93, 226.82, -3114.77, 0.000, 0.000, 0.000, 18:29:40.245
125, -95.28, 65.26, 215.70, -3052.82, 0.000, 0.000, 0.000, 18:29:40.246
126, -90.35, 70.80, 216.57, -3026.58, 0.000, 0.000, 0.000, 18:29:40.246
127, -120.26, 78.09, 215.96, -3095.07, 0.000, 0.000, 0.000, 18:29:40.260
128, -119.00, 71.75, 217.67, -3134.93, 0.000, 0.000, 0.000, 18:29:40.260
129, -107.95, 64.62, 221.28, -3006.72, 0.000, 0.000, 0.000, 18:29:40.275
130, -90.40, 71.97, 216.64, -3067.93, 0.000, 0.000, 0.000, 18:29:40.275
131, -106.21, 92.18, 219.76, -3161.46, 0.000, 0.000, 0.000, 18:29:40.276
132, -125.92, 77.87, 224.53, -3112.84, 0.000, 0.000, 0.000, 18:29:40.276
133, -98.87, 70.23, 215.90, -3049.72, 0.000, 0.000, 0.000, 18:29:40.290
134, -73.65, 78.97, 208.18, -3101.05, 0.000, 0.000, 0.000, 18:29:40.290
135, -107.28, 88.94, 219.24, -3126.53, 0.000, 0.000, 0.000, 18:29:40.305
136, -120.38, 81.06, 218.65, -3150.53, 0.000, 0.000, 0.000, 18:29:40.305
137, -90.49, 78.20, 211.58, -3107.12, 0.000, 0.000, 0.000, 18:29:40.306
138, -78.87, 84.85, 218.51, -3062.14, 0.000, 0.000, 0.000, 18:29:40.306
139, -101.33, 98.91, 218.13, -3147.63, 0.000, 0.000, 0.000, 18:29:40.320
140, -103.45, 95.36, 221.67, -3188.15, 0.000, 0.000, 0.000, 18:29:40.320
141, -96.43, 76.56, 214.98, -3055.43, 0.000, 0.000, 0.000, 18:29:40.335
142, -88.16, 82.20, 207.14, -3068.35, 0.000, 0.000, 0.000, 18:29:40.335
143, -101.77, 102.92, 212.06, -3163.95, 0.000, 0.000, 0.000, 18:29:40.336
144, -112.29, 93.88, 223.81, -3154.34, 0.000, 0.000, 0.000, 18:29:40.336
145, -84.53, 87.42, 220.52, -3069.20, 0.000, 0.000, 0.000, 18:29:40.350
146, -67.81, 95.48, 206.06, -3105.33, 0.000, 0.000, 0.000, 18:29:40.350
147, -112.94, 97.31, 207.54, -3133.26, 0.000, 0.000, 0.000, 18:29:40.365
148, -123.18, 92.06, 213.92, -3141.97, 0.000, 0.000, 0.000, 18:29:40.365
149, -96.53, 80.59, 208.64, -3093.45, 0.000, 0.000, 0.000, 18:29:40.366
150, -80.91, 88.16, 209.29, -3069.32, 0.000, 0.000, 0.000, 18:29:40.366
151, -96.98, 102.23, 219.57, -3157.24, 0.000, 0.000, 0.000, 18:29:40.380
152, -101.11, 105.74, 219.18, -3186.90, 0.000, 0.000, 0.000, 18:29:40.380
153, -98.75, 80.31, 214.64, -3040.70, 0.000, 0.000, 0.000, 18:29:40.395
154, -73.17, 89.82, 211.63, -3063.70, 0.000, 0.000, 0.000, 18:29:40.395
155, -98.50, 104.78, 215.64, -3148.79, 0.000, 0.000, 0.000, 18:29:40.396
156, -119.03, 97.59, 228.08, -3121.26, 0.000, 0.000, 0.000, 18:29:40.396
157, -99.53, 77.87, 213.06, -3047.60, 0.000, 0.000, 0.000, 18:29:40.425
158, -74.57, 94.94, 207.74, -3110.63, 0.000, 0.000, 0.000, 18:29:40.425
159, -108.59, 100.28, 217.77, -3125.40, 0.000, 0.000, 0.000, 18:29:40.425
160, -126.85, 88.52, 215.83, -3129.77, 0.000, 0.000, 0.000, 18:29:40.426
161, -94.74, 82.73, 216.14, -3048.25, 0.000, 0.000, 0.000, 18:29:40.426
162, -81.60, 93.11, 218.93, -3024.64, 0.000, 0.000, 0.000, 18:29:40.426
163, -101.92, 107.39, 226.05, -3114.11, 0.000, 0.000, 0.000, 18:29:40.440
164, -95.08, 99.18, 213.26, -3202.83, 0.000, 0.000, 0.000, 18:29:40.440
165, -98.28, 77.66, 219.87, -3039.04, 0.000, 0.000, 0.000, 18:29:40.455
166, -74.00, 89.28, 221.49, -3042.83, 0.000, 0.000, 0.000, 18:29:40.455
167, -100.32, 105.65, 216.98, -3144.46, 0.000, 0.000, 0.000, 18:29:40.456
168, -118.00, 96.92, 229.87, -3104.22, 0.000, 0.000, 0.000, 18:29:40.456
169, -94.13, 85.85, 223.38, -3054.09, 0.000, 0.000, 0.000, 18:29:40.470
170, -64.20, 98.92, 218.07, -3085.37, 0.000, 0.000, 0.000, 18:29:40.470
171, -102.87, 107.56, 229.94, -3116.54, 0.000, 0.000, 0.000, 18:29:40.485
172, -119.96, 94.04, 222.84, -3137.59, 0.000, 0.000, 0.000, 18:29:40.485
173, -89.18, 86.52, 219.15, -3062.99, 0.000, 0.000, 0.000, 18:29:40.486
174, -78.62, 90.18, 224.12, -3051.32, 0.000, 0.000, 0.000, 18:29:40.486
175, -98.29, 105.78, 229.42, -3131.37, 0.000, 0.000, 0.000, 18:29:40.515
176, -104.45, 103.32, 218.55, -3175.55, 0.000, 0.000, 0.000, 18:29:40.515
177, -86.01, 90.27, 225.49, -3061.48, 0.000, 0.000, 0.000, 18:29:40.515
178, -71.75, 96.30, 222.73, -3063.46, 0.000, 0.000, 0.000, 18:29:40.516
179, -92.44, 111.10, 224.39, -3124.57, 0.000, 0.000, 0.000, 18:29:40.516
180, -122.95, 94.06, 217.19, -3123.64, 0.000, 0.000, 0.000, 18:29:40.516
181, -87.57, 88.38, 222.90, -3044.37, 0.000, 0.000, 0.000, 18:29:40.530
182, -44.32, 106.97, 214.99, -3134.52, 0.000, 0.000, 0.000, 18:29:40.530
183, -92.07, 115.18, 241.78, -3074.92, 0.000, 0.000, 0.000, 18:29:40.545
184, -116.67, 99.55, 237.05, -3088.50, 0.000, 0.000, 0.000, 18:29:40.545
185, -92.10, 83.87, 221.24, -3049.98, 0.000, 0.000, 0.000, 18:29:40.546
186, -81.20, 93.80, 218.41, -3025.99, 0.000, 0.000, 0.000, 18:29:40.546
187, -104.24, 102.79, 219.87, -3125.82, 0.000, 0.000, 0.000, 18:29:40.560
188, -107.02, 99.43, 218.95, -3155.62, 0.000, 0.000, 0.000, 18:29:40.561
189, -101.73, 78.30, 214.59, -3061.02, 0.000, 0.000, 0.000, 18:29:40.575
190, -83.90, 97.16, 213.49, -3055.43, 0.000, 0.000, 0.000, 18:29:40.575
191, -107.40, 105.71, 213.37, -3123.14, 0.000, 0.000, 0.000, 18:29:40.576
192, -122.35, 98.16, 226.55, -3101.76, 0.000, 0.000, 0.000, 18:29:40.576
193, -104.92, 85.09, 222.10, -3030.58, 0.000, 0.000, 0.000, 18:29:40.590
194, -82.33, 96.08, 207.47, -3059.33, 0.000, 0.000, 0.000, 18:29:40.590
195, -114.74, 103.55, 220.73, -3091.38, 0.000, 0.000, 0.000, 18:29:40.605
196, -135.01, 86.91, 218.35, -3099.94, 0.000, 0.000, 0.000, 18:29:40.605
197, -97.93, 81.94, 217.81, -3052.29, 0.000, 0.000, 0.000, 18:29:40.606
198, -77.30, 95.33, 223.03, -3037.60, 0.000, 0.000, 0.000, 18:29:40.606
199, -98.42, 100.56, 225.31, -3123.50, 0.000, 0.000, 0.000, 18:29:40.620
200, -105.23, 103.77, 220.57, -3148.70, 0.000, 0.000, 0.000, 18:29:40.620
0, -91.61, 83.76, 222.50, -3048.11, 0.000, 0.000, 0.000, 18:29:40.621
1, -74.26, 94.67, 221.83, -3048.78, 0.000, 0.000, 0.000, 18:29:40.635
2, -83.46, 110.01, 222.59, -3155.42, 0.000, 0.000, 0.000, 18:29:40.635
3, -116.19, 103.02, 230.35, -3115.50, 0.000, 0.000, 0.000, 18:29:40.650
4, -89.19, 84.31, 222.51, -3042.09, 0.000, 0.000, 0.000, 18:29:40.650
5, -63.93, 99.08, 219.87, -3062.99, 0.000, 0.000, 0.000, 18:29:40.651
6, -104.10, 102.70, 223.48, -3082.43, 0.000, 0.000, 0.000, 18:29:40.651
7, -115.77, 101.42, 228.44, -3109.24, 0.000, 0.000, 0.000, 18:29:40.665
8, -81.27, 97.95, 226.22, -3075.20, 0.000, 0.000, 0.000, 18:29:40.665
9, -78.40, 94.68, 220.32, -3032.47, 0.000, 0.000, 0.000, 18:29:40.680
10, -94.53, 116.09, 236.01, -3103.33, 0.000, 0.000, 0.000, 18:29:40.680
11, -112.46, 101.65, 225.67, -3123.38, 0.000, 0.000, 0.000, 18:29:40.681
12, -86.59, 91.41, 231.33, -3031.45, 0.000, 0.000, 0.000, 18:29:40.681
13, -70.40, 92.62, 220.13, -3048.18, 0.000, 0.000, 0.000, 18:29:40.695
14, -91.25, 103.42, 215.16, -3162.66, 0.000, 0.000, 0.000, 18:29:40.695
15, -119.13, 99.18, 226.02, -3112.86, 0.000, 0.000, 0.000, 18:29:40.710
16, -103.50, 90.37, 220.33, -3025.76, 0.000, 0.000, 0.000, 18:29:40.710
17, -82.54, 96.34, 214.00, -3039.01, 0.000, 0.000, 0.000, 18:29:40.711
18, -110.78, 106.22, 218.16, -3093.91, 0.000, 0.000, 0.000, 18:29:40.711
19, -134.05, 92.88, 213.44, -3104.97, 0.000, 0.000, 0.000, 18:29:40.740
20, -95.69, 85.86, 217.95, -3068.53, 0.000, 0.000, 0.000, 18:29:40.740
21, -93.34, 84.08, 211.33, -3031.12, 0.000, 0.000, 0.000, 18:29:40.740
22, -115.90, 97.63, 216.04, -3113.98, 0.000, 0.000, 0.000, 18:29:40.741
23, -131.33, 92.96, 213.57, -3114.81, 0.000, 0.000, 0.000, 18:29:40.741
24, -112.72, 73.12, 208.44, -3031.63, 0.000, 0.000, 0.000, 18:29:40.741
25, -84.64, 90.17, 214.97, -3038.53, 0.000, 0.000, 0.000, 18:29:40.755
26, -86.78, 105.60, 210.08, -3188.71, 0.000, 0.000, 0.000, 18:29:40.755
27, -123.16, 92.84, 231.93, -3112.97, 0.000, 0.000, 0.000, 18:29:40.770
28, -93.43, 90.56, 225.91, -3031.66, 0.000, 0.000, 0.000, 18:29:40.770
29, -82.51, 88.70, 210.18, -3067.20, 0.000, 0.000, 0.000, 18:29:40.771
30, -109.93, 102.78, 223.06, -3090.02, 0.000, 0.000, 0.000, 18:29:40.771
31, -114.18, 101.01, 227.40, -3119.55, 0.000, 0.000, 0.000, 18:29:40.785
32, -77.76, 92.52, 219.50, -3107.19, 0.000, 0.000, 0.000, 18:29:40.785
33, -78.48, 96.51, 221.85, -3035.27, 0.000, 0.000, 0.000, 18:29:40.800
34, -97.92, 111.78, 227.63, -3087.08, 0.000, 0.000, 0.000, 18:29:40.800
35, -115.25, 99.74, 221.64, -3147.62, 0.000, 0.000, 0.000, 18:29:40.801
36, -95.67, 85.06, 216.81, -3051.57, 0.000, 0.000, 0.000, 18:29:40.801
37, -76.76, 89.94, 216.80, -3064.18, 0.000, 0.000, 0.000, 18:29:40.815
38, -82.72, 111.43, 217.13, -3209.96, 0.000, 0.000, 0.000, 18:29:40.815
39, -105.79, 104.73, 237.16, -3134.29, 0.000, 0.000, 0.000, 18:29:40.831
40, -89.97, 95.86, 223.85, -3046.20, 0.000, 0.000, 0.000, 18:29:40.831
41, -68.73, 102.28, 222.34, -3055.13, 0.000, 0.000, 0.000, 18:29:40.831
42, -99.48, 109.47, 225.67, -3116.83, 0.000, 0.000, 0.000, 18:29:40.831
43, -112.10, 103.33, 229.19, -3128.69, 0.000, 0.000, 0.000, 18:29:40.845
44, -79.06, 96.09, 219.84, -3101.74, 0.000, 0.000, 0.000, 18:29:40.845
45, -78.84, 93.17, 220.53, -3038.43, 0.000, 0.000, 0.000, 18:29:40.860
46, -104.12, 106.34, 217.05, -3112.76, 0.000, 0.000, 0.000, 18:29:40.860
47, -109.26, 107.45, 224.54, -3142.64, 0.000, 0.000, 0.000, 18:29:40.861
48, -89.88, 91.23, 226.16, -3038.81, 0.000, 0.000, 0.000, 18:29:40.861
49, -74.03, 94.83, 218.27, -3047.84, 0.000, 0.000, 0.000, 18:29:40.875
50, -84.60, 111.71, 215.53, -3168.36, 0.000, 0.000, 0.000, 18:29:40.875
51, -114.79, 99.81, 224.55, -3115.42, 0.000, 0.000, 0.000, 18:29:40.890
52, -99.24, 82.25, 215.98, -3056.30, 0.000, 0.000, 0.000, 18:29:40.890
53, -77.36, 95.66, 214.08, -3041.69, 0.000, 0.000, 0.000, 18:29:40.891
54, -105.19, 105.47, 224.90, -3077.18, 0.000, 0.000, 0.000, 18:29:40.891
55, -121.04, 101.36, 225.85, -3113.84, 0.000, 0.000, 0.000, 18:29:40.905
56, -89.46, 90.99, 215.77, -3064.04, 0.000, 0.000, 0.000, 18:29:40.905
57, -92.11, 88.98, 212.80, -3006.95, 0.000, 0.000, 0.000, 18:29:40.920
58, -109.24, 101.72, 218.53, -3098.08, 0.000, 0.000, 0.000, 18:29:40.920
59, -118.18, 104.93, 224.37, -3104.17, 0.000, 0.000, 0.000, 18:29:40.921
60, -105.20, 85.20, 227.10, -3009.59, 0.000, 0.000, 0.000, 18:29:40.921
61, -87.53, 91.14, 219.40, -3009.45, 0.000, 0.000, 0.000, 18:29:40.935
62, -88.03, 109.87, 224.62, -3125.87, 0.000, 0.000, 0.000, 18:29:40.935
63, -130.62, 97.11, 227.39, -3070.55, 0.000, 0.000, 0.000, 18:29:40.952
64, -96.90, 86.45, 230.30, -3026.79, 0.000, 0.000, 0.000, 18:29:40.952
65, -70.76, 100.40, 226.62, -3028.34, 0.000, 0.000, 0.000, 18:29:40.952
66, -101.61, 105.69, 233.12, -3092.14, 0.000, 0.000, 0.000, 18:29:40.952
67, -118.69, 96.71, 231.31, -3094.19, 0.000, 0.000, 0.000, 18:29:40.965
68, -89.85, 81.40, 214.73, -3104.16, 0.000, 0.000, 0.000, 18:29:40.965
69, -76.35, 91.88, 220.43, -3044.42, 0.000, 0.000, 0.000, 18:29:40.980
70, -96.86, 112.44, 228.10, -3108.37, 0.000, 0.000, 0.000, 18:29:40.980
71, -109.94, 107.23, 222.23, -3152.62, 0.000, 0.000, 0.000, 18:29:40.981
72, -103.93, 92.33, 220.37, -3033.74, 0.000, 0.000, 0.000, 18:29:40.981
73, -84.42, 90.94, 210.26, -3034.55, 0.000, 0.000, 0.000, 18:29:40.995
74, -87.83, 113.06, 218.85, -3143.71, 0.000, 0.000, 0.000, 18:29:40.995
75, -119.80, 103.81, 230.36, -3099.92, 0.000, 0.000, 0.000, 18:29:41.010
76, -95.80, 92.13, 228.26, -3028.96, 0.000, 0.000, 0.000, 18:29:41.010
77, -72.05, 95.83, 218.28, -3041.43, 0.000, 0.000, 0.000, 18:29:41.011
78, -100.56, 108.23, 224.83, -3110.25, 0.000, 0.000, 0.000, 18:29:41.011
79, -118.66, 101.72, 225.87, -3142.68, 0.000, 0.000, 0.000, 18:29:41.025
80, -90.40, 88.01, 207.65, -3114.79, 0.000, 0.000, 0.000, 18:29:41.025
81, -73.96, 95.08, 219.96, -3035.64, 0.000, 0.000, 0.000, 18:29:41.055
82, -99.33, 108.01, 228.07, -3125.87, 0.000, 0.000, 0.000, 18:29:41.055
83, -115.60, 103.10, 225.88, -3127.03, 0.000, 0.000, 0.000, 18:29:41.055
84, -94.52, 92.58, 229.35, -3029.38, 0.000, 0.000, 0.000, 18:29:41.056
85, -77.40, 93.50, 222.45, -3034.88, 0.000, 0.000, 0.000, 18:29:41.056
86, -98.32, 107.36, 225.59, -3104.95, 0.000, 0.000, 0.000, 18:29:41.056
87, -117.90, 97.98, 232.04, -3105.45, 0.000, 0.000, 0.000, 18:29:41.057
88, -102.58, 82.04, 220.90, -3053.68, 0.000, 0.000, 0.000, 18:29:41.057
89, -39.55, 104.37, 203.10, -3186.86, 0.000, 0.000, 0.000, 18:29:41.070
90, -104.89, 106.91, 222.36, -3109.32, 0.000, 0.000, 0.000, 18:29:41.070
91, -108.13, 108.80, 228.94, -3126.04, 0.000, 0.000, 0.000, 18:29:41.085
92, -88.89, 96.32, 218.43, -3078.24, 0.000, 0.000, 0.000, 18:29:41.085
93, -78.45, 99.13, 218.55, -3029.88, 0.000, 0.000, 0.000, 18:29:41.100
94, -91.19, 107.25, 219.70, -3148.05, 0.000, 0.000, 0.000, 18:29:41.100
95, -102.83, 104.26, 227.54, -3159.96, 0.000, 0.000, 0.000, 18:29:41.101
96, -92.09, 90.79, 225.99, -3043.59, 0.000, 0.000, 0.000, 18:29:41.101
97, -73.14, 100.75, 220.45, -3034.19, 0.000, 0.000, 0.000, 18:29:41.115
98, -77.37, 115.25, 221.22, -3169.74, 0.000, 0.000, 0.000, 18:29:41.115
99, -119.40, 93.99, 221.91, -3136.11, 0.000, 0.000, 0.000, 18:29:41.130
100, -98.53, 83.56, 219.36, -3043.19, 0.000, 0.000, 0.000, 18:29:41.130
101, -68.27, 97.92, 222.23, -3066.46, 0.000, 0.000, 0.000, 18:29:41.131
102, -93.27, 111.91, 229.34, -3109.08, 0.000, 0.000, 0.000, 18:29:41.131
103, -114.42, 106.38, 232.28, -3126.80, 0.000, 0.000, 0.000, 18:29:41.145
104, -85.82, 94.93, 217.68, -3097.32, 0.000, 0.000, 0.000, 18:29:41.145
105, -84.16, 92.27, 215.74, -3042.23, 0.000, 0.000, 0.000, 18:29:41.160
106, -105.67, 105.30, 217.51, -3113.20, 0.000, 0.000, 0.000, 18:29:41.161
107, -121.35, 98.79, 216.39, -3157.06, 0.000, 0.000, 0.000, 18:29:41.161
108, -102.26, 91.28, 225.25, -3032.42, 0.000, 0.000, 0.000, 18:29:41.161
109, -75.83, 99.07, 223.13, -3023.37, 0.000, 0.000, 0.000, 18:29:41.175
110, -87.72, 114.31, 218.76, -3151.69, 0.000, 0.000, 0.000, 18:29:41.175
111, -126.88, 103.11, 222.11, -3112.85, 0.000, 0.000, 0.000, 18:29:41.190
112, -101.31, 82.24, 217.39, -3039.30, 0.000, 0.000, 0.000, 18:29:41.190
113, -78.80, 88.18, 207.86, -3065.70, 0.000, 0.000, 0.000, 18:29:41.191
114, -113.22, 99.82, 208.30, -3104.36, 0.000, 0.000, 0.000, 18:29:41.191
115, -130.98, 85.74, 209.89, -3125.02, 0.000, 0.000, 0.000, 18:29:41.205
116, -90.87, 89.78, 214.25, -3106.62, 0.000, 0.000, 0.000, 18:29:41.205
117, -95.64, 82.89, 202.21, -3054.95, 0.000, 0.000, 0.000, 18:29:41.220
118, -102.15, 100.93, 216.16, -3118.31, 0.000, 0.000, 0.000, 18:29:41.220
119, -110.22, 105.67, 220.47, -3161.12, 0.000, 0.000, 0.000, 18:29:41.221
120, -100.37, 86.38, 218.76, -3057.21, 0.000, 0.000, 0.000, 18:29:41.221
121, -71.93, 94.74, 216.18, -3045.68, 0.000, 0.000, 0.000, 18:29:41.235
122, -84.43, 115.28, 222.50, -3169.74, 0.000, 0.000, 0.000, 18:29:41.235
123, -120.69, 95.35, 223.65, -3128.80, 0.000, 0.000, 0.000, 18:29:41.250
124, -92.32, 91.75, 229.19, -3034.46, 0.000, 0.000, 0.000, 18:29:41.250
125, -75.24, 94.54, 216.39, -3046.72, 0.000, 0.000, 0.000, 18:29:41.251
126, -96.00, 107.18, 230.56, -3081.60, 0.000, 0.000, 0.000, 18:29:41.251
127, -108.63, 107.68, 233.78, -3129.47, 0.000, 0.000, 0.000, 18:29:41.265
128, -75.50, 97.07, 226.23, -3086.79, 0.000, 0.000, 0.000, 18:29:41.265
129, -76.02, 98.94, 223.57, -3037.60, 0.000, 0.000, 0.000, 18:29:41.280
130, -86.97, 112.47, 232.22, -3104.38, 0.000, 0.000, 0.000, 18:29:41.280
131, -104.29, 106.08, 231.26, -3135.95, 0.000, 0.000, 0.000, 18:29:41.281
132, -99.14, 89.39, 225.87, -3029.72, 0.000, 0.000, 0.000, 18:29:41.281
133, -71.88, 94.07, 219.69, -3059.73, 0.000, 0.000, 0.000, 18:29:41.295
134, -84.75, 114.89, 215.19, -3177.62, 0.000, 0.000, 0.000, 18:29:41.295
135, -118.51, 105.49, 226.80, -3131.68, 0.000, 0.000, 0.000, 18:29:41.310
136, -103.32, 83.00, 211.08, -3066.35, 0.000, 0.000, 0.000, 18:29:41.310
137, -78.03, 95.16, 212.94, -3069.76, 0.000, 0.000, 0.000, 18:29:41.311
138, -99.72, 106.83, 223.23, -3108.87, 0.000, 0.000, 0.000, 18:29:41.311
139, -109.53, 107.83, 230.29, -3136.98, 0.000, 0.000, 0.000, 18:29:41.325
140, -81.60, 89.96, 216.10, -3120.02, 0.000, 0.000, 0.000, 18:29:41.326
141, -69.17, 98.36, 224.32, -3021.36, 0.000, 0.000, 0.000, 18:29:41.340
142, -90.78, 109.17, 222.21, -3132.62, 0.000, 0.000, 0.000, 18:29:41.340
143, -104.92, 105.39, 222.61, -3156.53, 0.000, 0.000, 0.000, 18:29:41.341
144, -95.38, 87.24, 224.58, -3055.32, 0.000, 0.000, 0.000, 18:29:41.341
145, -75.34, 91.63, 216.38, -3052.18, 0.000, 0.000, 0.000, 18:29:41.355
146, -84.20, 111.58, 220.01, -3171.44, 0.000, 0.000, 0.000, 18:29:41.355
147, -123.34, 104.16, 223.22, -3108.75, 0.000, 0.000, 0.000, 18:29:41.385
148, -95.49, 96.85, 231.61, -3046.25, 0.000, 0.000, 0.000, 18:29:41.385
149, -73.01, 97.85, 217.79, -3045.14, 0.000, 0.000, 0.000, 18:29:41.386
150, -96.45, 106.93, 223.99, -3093.48, 0.000, 0.000, 0.000, 18:29:41.386
151, -110.48, 110.56, 232.73, -3123.16, 0.000, 0.000, 0.000, 18:29:41.386
152, -98.67, 84.89, 220.58, -3051.70, 0.000, 0.000, 0.000, 18:29:41.386
153, -83.14, 90.50, 218.03, -3022.50, 0.000, 0.000, 0.000, 18:29:41.387
154, -95.30, 112.16, 227.95, -3105.87, 0.000, 0.000, 0.000, 18:29:41.387
155, -78.48, 113.96, 216.85, -3231.40, 0.000, 0.000, 0.000, 18:29:41.400
156, -111.16, 90.45, 230.10, -3026.22, 0.000, 0.000, 0.000, 18:29:41.400
157, -86.80, 88.36, 213.54, -3015.20, 0.000, 0.000, 0.000, 18:29:41.415
158, -104.20, 104.40, 215.31, -3108.68, 0.000, 0.000, 0.000, 18:29:41.415
159, -129.02, 97.52, 225.62, -3116.02, 0.000, 0.000, 0.000, 18:29:41.430
160, -106.04, 87.04, 223.57, -3034.41, 0.000, 0.000, 0.000, 18:29:41.430
161, -77.17, 99.26, 223.61, -3016.38, 0.000, 0.000, 0.000, 18:29:41.431
162, -105.79, 103.29, 221.71, -3086.86, 0.000, 0.000, 0.000, 18:29:41.431
163, -118.90, 107.03, 226.19, -3120.54, 0.000, 0.000, 0.000, 18:29:41.445
164, -87.90, 92.70, 218.53, -3096.56, 0.000, 0.000, 0.000, 18:29:41.445
165, -74.18, 100.38, 224.18, -3022.42, 0.000, 0.000, 0.000, 18:29:41.460
166, -97.73, 109.90, 224.90, -3113.01, 0.000, 0.000, 0.000, 18:29:41.460
167, -111.59, 105.10, 225.96, -3133.99, 0.000, 0.000, 0.000, 18:29:41.461
168, -101.66, 89.22, 224.44, -3015.33, 0.000, 0.000, 0.000, 18:29:41.461
169, -73.47, 96.06, 224.66, -3025.52, 0.000, 0.000, 0.000, 18:29:41.475
170, -84.11, 116.46, 222.13, -3146.26, 0.000, 0.000, 0.000, 18:29:41.475
171, -114.56, 104.56, 233.26, -3124.13, 0.000, 0.000, 0.000, 18:29:41.490
172, -93.16, 97.96, 231.69, -3050.02, 0.000, 0.000, 0.000, 18:29:41.490
173, -64.65, 98.96, 218.12, -3070.31, 0.000, 0.000, 0.000, 18:29:41.491
174, -91.72, 107.29, 223.17, -3111.28, 0.000, 0.000, 0.000, 18:29:41.491
175, -115.11, 103.62, 225.27, -3134.12, 0.000, 0.000, 0.000, 18:29:41.505
176, -86.25, 88.18, 213.31, -3134.52, 0.000, 0.000, 0.000, 18:29:41.505
177, -77.75, 87.94, 223.09, -3029.41, 0.000, 0.000, 0.000, 18:29:41.520
178, -90.62, 110.51, 232.57, -3084.49, 0.000, 0.000, 0.000, 18:29:41.520
179, -107.82, 105.02, 231.68, -3130.55, 0.000, 0.000, 0.000, 18:29:41.521
180, -90.96, 94.00, 231.07, -3044.33, 0.000, 0.000, 0.000, 18:29:41.521
181, -69.78, 102.07, 223.11, -3042.70, 0.000, 0.000, 0.000, 18:29:41.535
182, -80.75, 110.96, 220.93, -3152.63, 0.000, 0.000, 0.000, 18:29:41.535
183, -120.32, 105.22, 229.39, -3084.29, 0.000, 0.000, 0.000, 18:29:41.550
184, -104.63, 88.45, 225.24, -3026.63, 0.000, 0.000, 0.000, 18:29:41.550
185, -83.27, 93.61, 212.86, -3032.74, 0.000, 0.000, 0.000, 18:29:41.551
186, -98.55, 107.14, 227.88, -3065.55, 0.000, 0.000, 0.000, 18:29:41.551
187, -118.75, 102.88, 228.62, -3143.78, 0.000, 0.000, 0.000, 18:29:41.565
188, -99.33, 84.34, 210.54, -3111.91, 0.000, 0.000, 0.000, 18:29:41.565
189, -88.83, 86.95, 216.76, -3010.87, 0.000, 0.000, 0.000, 18:29:41.580
190, -107.04, 100.24, 219.81, -3087.17, 0.000, 0.000, 0.000, 18:29:41.580
191, -125.84, 99.40, 222.46, -3132.61, 0.000, 0.000, 0.000, 18:29:41.581
192, -111.15, 85.88, 219.82, -3039.76, 0.000, 0.000, 0.000, 18:29:41.581
193, -82.79, 91.81, 215.08, -3037.32, 0.000, 0.000, 0.000, 18:29:41.595
194, -91.05, 111.13, 211.52, -3165.48, 0.000, 0.000, 0.000, 18:29:41.595
195, -131.40, 97.63, 222.81, -3099.20, 0.000, 0.000, 0.000, 18:29:41.610
196, -110.33, 81.97, 210.80, -3054.67, 0.000, 0.000, 0.000, 18:29:41.610
197, -91.15, 80.46, 198.11, -3042.25, 0.000, 0.000, 0.000, 18:29:41.611
198, -107.01, 102.21, 216.09, -3081.56, 0.000, 0.000, 0.000, 18:29:41.611
199, -126.73, 102.17, 223.11, -3127.49, 0.000, 0.000, 0.000, 18:29:41.625
200, -98.94, 85.71, 208.73, -3102.02, 0.000, 0.000, 0.000, 18:29:41.625
0, -84.48, 91.71, 214.12, -3024.31, 0.000, 0.000, 0.000, 18:29:41.626
1, -101.93, 105.98, 222.65, -3090.53, 0.000, 0.000, 0.000, 18:29:41.640
2, -106.87, 104.89, 221.78, -3174.05, 0.000, 0.000, 0.000, 18:29:41.640
3, -107.27, 81.85, 222.58, -3016.82, 0.000, 0.000, 0.000, 18:29:41.655
4, -85.08, 83.97, 220.14, -3022.31, 0.000, 0.000, 0.000, 18:29:41.655
5, -93.27, 103.59, 221.42, -3114.32, 0.000, 0.000, 0.000, 18:29:41.656
6, -121.20, 99.68, 231.51, -3085.87, 0.000, 0.000, 0.000, 18:29:41.656
7, -109.69, 74.93, 221.34, -3036.76, 0.000, 0.000, 0.000, 18:29:41.670
8, -73.79, 89.06, 214.83, -3062.45, 0.000, 0.000, 0.000, 18:29:41.671
9, -102.61, 103.58, 225.97, -3084.63, 0.000, 0.000, 0.000, 18:29:41.700
10, -112.89, 101.49, 234.90, -3113.92, 0.000, 0.000, 0.000, 18:29:41.700
11, -92.12, 91.65, 224.91, -3051.81, 0.000, 0.000, 0.000, 18:29:41.701
12, -90.88, 84.18, 218.94, -3010.77, 0.000, 0.000, 0.000, 18:29:41.701
13, -98.62, 103.37, 217.66, -3114.24, 0.000, 0.000, 0.000, 18:29:41.701
14, -116.01, 104.56, 223.07, -3127.68, 0.000, 0.000, 0.000, 18:29:41.701
15, -106.50, 80.31, 224.37, -3056.36, 0.000, 0.000, 0.000, 18:29:41.702
16, -79.83, 86.53, 217.04, -3032.34, 0.000, 0.000, 0.000, 18:29:41.702
17, -60.05, 117.14, 205.08, -3244.91, 0.000, 0.000, 0.000, 18:29:41.715
18, -132.40, 101.15, 230.41, -3080.45, 0.000, 0.000, 0.000, 18:29:41.715
19, -103.83, 88.05, 224.21, -3040.57, 0.000, 0.000, 0.000, 18:29:41.745
20, -77.07, 92.25, 215.66, -3050.63, 0.000, 0.000, 0.000, 18:29:41.745
21, -101.86, 99.69, 216.48, -3095.40, 0.000, 0.000, 0.000, 18:29:41.746
22, -121.83, 94.62, 222.33, -3121.03, 0.000, 0.000, 0.000, 18:29:41.746
23, -105.62, 86.78, 220.86, -3040.84, 0.000, 0.000, 0.000, 18:29:41.746
24, -84.86, 88.43, 218.86, -3009.23, 0.000, 0.000, 0.000, 18:29:41.747
25, -95.35, 103.86, 221.85, -3126.73, 0.000, 0.000, 0.000, 18:29:41.760
26, -89.78, 117.12, 220.46, -3208.57, 0.000, 0.000, 0.000, 18:29:41.760
27, -102.98, 91.14, 234.14, -3033.78, 0.000, 0.000, 0.000, 18:29:41.775
28, -76.76, 96.77, 227.32, -3006.80, 0.000, 0.000, 0.000, 18:29:41.775
29, -86.69, 115.05, 231.00, -3112.91, 0.000, 0.000, 0.000, 18:29:41.776
30, -117.34, 101.35, 233.52, -3111.76, 0.000, 0.000, 0.000, 18:29:41.776
31, -99.76, 83.39, 226.99, -3046.79, 0.000, 0.000, 0.000, 18:29:41.790
32, -66.13, 96.87, 217.63, -3060.62, 0.000, 0.000, 0.000, 18:29:41.790
33, -94.76, 105.50, 225.91, -3100.69, 0.000, 0.000, 0.000, 18:29:41.805
34, -112.67, 104.63, 230.04, -3115.15, 0.000, 0.000, 0.000, 18:29:41.805
35, -94.88, 88.01, 222.79, -3080.52, 0.000, 0.000, 0.000, 18:29:41.806
36, -80.58, 90.11, 217.33, -3018.44, 0.000, 0.000, 0.000, 18:29:41.806
37, -88.22, 111.57, 234.59, -3104.77, 0.000, 0.000, 0.000, 18:29:41.820
38, -100.94, 112.15, 225.43, -3182.19, 0.000, 0.000, 0.000, 18:29:41.820
39, -106.41, 88.22, 226.52, -3042.10, 0.000, 0.000, 0.000, 18:29:41.835
40, -91.53, 83.65, 214.31, -3022.99, 0.000, 0.000, 0.000, 18:29:41.835
41, -92.75, 115.43, 229.87, -3108.86, 0.000, 0.000, 0.000, 18:29:41.836
42, -115.77, 109.25, 235.68, -3100.99, 0.000, 0.000, 0.000, 18:29:41.836
43, -98.77, 89.46, 228.87, -3054.79, 0.000, 0.000, 0.000, 18:29:41.850
44, -65.80, 99.29, 222.04, -3064.58, 0.000, 0.000, 0.000, 18:29:41.850
45, -98.06, 101.73, 224.93, -3105.93, 0.000, 0.000, 0.000, 18:29:41.865
46, -108.82, 106.98, 232.23, -3145.86, 0.000, 0.000, 0.000, 18:29:41.865
47, -88.44, 93.84, 225.54, -3076.54, 0.000, 0.000, 0.000, 18:29:41.866
48, -80.26, 88.82, 220.49, -2988.77, 0.000, 0.000, 0.000, 18:29:41.866
49, -95.61, 106.32, 227.16, -3091.65, 0.000, 0.000, 0.000, 18:29:41.880
50, -113.20, 105.42, 222.62, -3151.85, 0.000, 0.000, 0.000, 18:29:41.880
51, -113.84, 86.32, 222.86, -3027.44, 0.000, 0.000, 0.000, 18:29:41.895
52, -85.98, 89.96, 212.86, -3019.23, 0.000, 0.000, 0.000, 18:29:41.895
53, -93.25, 108.31, 216.86, -3119.81, 0.000, 0.000, 0.000, 18:29:41.896
54, -124.33, 101.63, 224.05, -3125.29, 0.000, 0.000, 0.000, 18:29:41.896
55, -109.36, 86.76, 217.71, -3060.69, 0.000, 0.000, 0.000, 18:29:41.911
56, -73.16, 96.18, 207.30, -3076.63, 0.000, 0.000, 0.000, 18:29:41.911
57, -105.15, 108.11, 214.83, -3094.31, 0.000, 0.000, 0.000, 18:29:41.925
58, -126.22, 104.05, 223.01, -3126.03, 0.000, 0.000, 0.000, 18:29:41.925
59, -104.11, 89.97, 206.70, -3093.59, 0.000, 0.000, 0.000, 18:29:41.926
60, -88.36, 93.29, 211.09, -3042.21, 0.000, 0.000, 0.000, 18:29:41.926
61, -98.71, 109.86, 212.77, -3113.51, 0.000, 0.000, 0.000, 18:29:41.940
62, -115.53, 106.98, 210.57, -3160.04, 0.000, 0.000, 0.000, 18:29:41.940
63, -115.72, 90.46, 215.58, -3034.41, 0.000, 0.000, 0.000, 18:29:41.955
64, -89.73, 95.19, 214.63, -3009.65, 0.000, 0.000, 0.000, 18:29:41.955
65, -95.53, 114.54, 218.48, -3100.34, 0.000, 0.000, 0.000, 18:29:41.956
66, -124.91, 105.47, 226.89, -3103.76, 0.000, 0.000, 0.000, 18:29:41.956
67, -101.94, 89.59, 220.01, -3069.87, 0.000, 0.000, 0.000, 18:29:41.970
68, -77.71, 89.21, 204.99, -3081.84, 0.000, 0.000, 0.000, 18:29:41.971
69, -93.74, 110.71, 224.03, -3084.48, 0.000, 0.000, 0.000, 18:29:41.985
70, -113.64, 115.10, 230.42, -3117.16, 0.000, 0.000, 0.000, 18:29:41.985
71, -98.15, 93.50, 218.34, -3068.03, 0.000, 0.000, 0.000, 18:29:41.986
72, -82.60, 95.39, 221.01, -3021.12, 0.000, 0.000, 0.000, 18:29:41.986
73, -89.66, 111.85, 227.41, -3122.02, 0.000, 0.000, 0.000, 18:29:42.015
74, -101.09, 113.24, 222.32, -3197.94, 0.000, 0.000, 0.000, 18:29:42.015
75, -99.51, 94.46, 224.84, -3034.42, 0.000, 0.000, 0.000, 18:29:42.016
76, -77.26, 98.78, 222.19, -3017.15, 0.000, 0.000, 0.000, 18:29:42.016
77, -90.16, 110.17, 222.01, -3094.22, 0.000, 0.000, 0.000, 18:29:42.016
78, -117.18, 104.93, 226.83, -3130.92, 0.000, 0.000, 0.000, 18:29:42.016
79, -102.87, 82.86, 215.40, -3071.73, 0.000, 0.000, 0.000, 18:29:42.030
80, -55.98, 97.55, 204.93, -3114.15, 0.000, 0.000, 0.000, 18:29:42.031
81, -97.36, 109.77, 231.03, -3065.85, 0.000, 0.000, 0.000, 18:29:42.045
82, -113.71, 103.47, 234.10, -3126.02, 0.000, 0.000, 0.000, 18:29:42.045
83, -99.01, 84.63, 218.21, -3106.16, 0.000, 0.000, 0.000, 18:29:42.046
84, -83.22, 84.25, 214.10, -3046.86, 0.000, 0.000, 0.000, 18:29:42.046
85, -98.02, 101.17, 216.47, -3120.23, 0.000, 0.000, 0.000, 18:29:42.060
86, -114.51, 103.09, 215.48, -3178.75, 0.000, 0.000, 0.000, 18:29:42.060
87, -117.65, 77.38, 212.90, -3054.45, 0.000, 0.000, 0.000, 18:29:42.075
88, -83.05, 82.14, 215.16, -3033.90, 0.000, 0.000, 0.000, 18:29:42.075
89, -96.44, 99.51, 214.98, -3136.19, 0.000, 0.000, 0.000, 18:29:42.076
90, -122.30, 98.25, 225.49, -3116.38, 0.000, 0.000, 0.000, 18:29:42.076
91, -106.81, 81.01, 219.47, -3051.21, 0.000, 0.000, 0.000, 18:29:42.090
92, -74.15, 85.59, 213.98, -3081.25, 0.000, 0.000, 0.000, 18:29:42.090
93, -93.50, 102.93, 226.18, -3100.93, 0.000, 0.000, 0.000, 18:29:42.105
94, -119.09, 102.51, 228.60, -3138.51, 0.000, 0.000, 0.000, 18:29:42.105
95, -95.29, 88.23, 221.53, -3075.71, 0.000, 0.000, 0.000, 18:29:42.106
96, -83.37, 87.67, 214.47, -3030.54, 0.000, 0.000, 0.000, 18:29:42.106
97, -94.04, 102.01, 217.69, -3122.08, 0.000, 0.000, 0.000, 18:29:42.120
98, -110.65, 107.23, 220.29, -3183.54, 0.000, 0.000, 0.000, 18:29:42.120
99, -107.96, 81.03, 222.42, -3059.18, 0.000, 0.000, 0.000, 18:29:42.135
100, -76.46, 85.95, 214.17, -3044.24, 0.000, 0.000, 0.000, 18:29:42.135
101, -79.52, 112.80, 219.67, -3138.62, 0.000, 0.000, 0.000, 18:29:42.136
102, -110.83, 101.41, 225.20, -3132.65, 0.000, 0.000, 0.000, 18:29:42.136
103, -105.96, 82.33, 223.43, -3076.51, 0.000, 0.000, 0.000, 18:29:42.150
104, -66.58, 94.87, 217.30, -3063.86, 0.000, 0.000, 0.000, 18:29:42.150
105, -92.40, 113.04, 225.40, -3110.38, 0.000, 0.000, 0.000, 18:29:42.165
106, -109.65, 103.62, 226.33, -3152.66, 0.000, 0.000, 0.000, 18:29:42.165
107, -99.18, 91.11, 219.20, -3083.04, 0.000, 0.000, 0.000, 18:29:42.166
108, -79.57, 90.43, 220.58, -3034.18, 0.000, 0.000, 0.000, 18:29:42.166
109, -97.24, 106.28, 222.73, -3102.46, 0.000, 0.000, 0.000, 18:29:42.180
110, -114.10, 107.13, 221.07, -3153.76, 0.000, 0.000, 0.000, 18:29:42.180
111, -104.84, 96.03, 229.28, -3049.73, 0.000, 0.000, 0.000, 18:29:42.196
112, -78.01, 94.06, 220.59, -3034.52, 0.000, 0.000, 0.000, 18:29:42.196
113, -84.18, 114.15, 222.74, -3107.28, 0.000, 0.000, 0.000, 18:29:42.196
114, -124.10, 97.22, 228.06, -3133.98, 0.000, 0.000, 0.000, 18:29:42.196
115, -101.08, 93.31, 224.21, -3082.99, 0.000, 0.000, 0.000, 18:29:42.210
116, -73.03, 96.87, 207.73, -3069.16, 0.000, 0.000, 0.000, 18:29:42.210
117, -101.35, 103.56, 222.72, -3076.72, 0.000, 0.000, 0.000, 18:29:42.225
118, -130.63, 105.00, 219.18, -3109.76, 0.000, 0.000, 0.000, 18:29:42.225
119, -100.11, 97.01, 225.27, -3062.41, 0.000, 0.000, 0.000, 18:29:42.226
120, -82.61, 90.63, 217.85, -3015.95, 0.000, 0.000, 0.000, 18:29:42.226
121, -84.99, 111.01, 228.61, -3098.19, 0.000, 0.000, 0.000, 18:29:42.240
122, -99.82, 115.51, 225.90, -3169.48, 0.000, 0.000, 0.000, 18:29:42.240
123, -104.42, 91.12, 224.90, -3047.51, 0.000, 0.000, 0.000, 18:29:42.255
124, -70.48, 96.90, 223.38, -3044.04, 0.000, 0.000, 0.000, 18:29:42.255
125, -83.81, 111.49, 220.05, -3120.92, 0.000, 0.000, 0.000, 18:29:42.256
126, -111.19, 113.76, 233.13, -3107.24, 0.000, 0.000, 0.000, 18:29:42.256
127, -102.27, 92.04, 228.25, -3050.99, 0.000, 0.000, 0.000, 18:29:42.270
128, -67.73, 95.69, 216.26, -3062.70, 0.000, 0.000, 0.000, 18:29:42.270
129, -87.50, 115.87, 231.64, -3087.00, 0.000, 0.000, 0.000, 18:29:42.285
130, -113.25, 108.00, 226.62, -3142.97, 0.000, 0.000, 0.000, 18:29:42.285
131, -91.01, 100.45, 225.72, -3086.66, 0.000, 0.000, 0.000, 18:29:42.286
132, -77.93, 95.96, 218.72, -3033.59, 0.000, 0.000, 0.000, 18:29:42.286
133, -94.19, 105.50, 219.91, -3127.42, 0.000, 0.000, 0.000, 18:29:42.300
134, -111.43, 104.66, 214.33, -3193.05, 0.000, 0.000, 0.000, 18:29:42.300
135, -96.09, 103.70, 229.28, -3048.98, 0.000, 0.000, 0.000, 18:29:42.315
136, -68.26, 98.15, 221.91, -3037.25, 0.000, 0.000, 0.000, 18:29:42.315
137, -77.29, 114.72, 220.30, -3142.97, 0.000, 0.000, 0.000, 18:29:42.316
138, -109.18, 115.60, 235.58, -3097.01, 0.000, 0.000, 0.000, 18:29:42.316
139, -104.48, 91.19, 229.11, -3068.21, 0.000, 0.000, 0.000, 18:29:42.345
140, -65.62, 102.76, 218.73, -3075.36, 0.000, 0.000, 0.000, 18:29:42.345
141, -83.61, 113.39, 228.72, -3104.61, 0.000, 0.000, 0.000, 18:29:42.345
142, -107.79, 115.14, 236.15, -3117.09, 0.000, 0.000, 0.000, 18:29:42.346
143, -102.66, 98.55, 228.08, -3045.53, 0.000, 0.000, 0.000, 18:29:42.346
144, -80.20, 95.65, 228.99, -2995.22, 0.000, 0.000, 0.000, 18:29:42.346
145, -88.66, 110.59, 230.48, -3101.87, 0.000, 0.000, 0.000, 18:29:42.360
146, -86.28, 119.24, 221.89, -3232.18, 0.000, 0.000, 0.000, 18:29:42.360
147, -90.97, 99.38, 237.63, -3057.68, 0.000, 0.000, 0.000, 18:29:42.375
148, -73.16, 94.16, 227.90, -3029.90, 0.000, 0.000, 0.000, 18:29:42.375
149, -81.73, 115.03, 226.65, -3112.25, 0.000, 0.000, 0.000, 18:29:42.378
150, -118.13, 101.06, 230.18, -3138.74, 0.000, 0.000, 0.000, 18:29:42.378
151, -95.52, 93.80, 232.34, -3064.82, 0.000, 0.000, 0.000, 18:29:42.390
152, -62.88, 95.66, 220.83, -3083.45, 0.000, 0.000, 0.000, 18:29:42.390
153, -81.92, 114.03, 233.35, -3116.14, 0.000, 0.000, 0.000, 18:29:42.405
154, -101.20, 114.03, 232.35, -3161.15, 0.000, 0.000, 0.000, 18:29:42.405
155, -94.04, 96.01, 221.10, -3115.66, 0.000, 0.000, 0.000, 18:29:42.406
156, -76.11, 96.84, 222.09, -3031.65, 0.000, 0.000, 0.000, 18:29:42.406
157, -98.00, 102.08, 221.06, -3112.16, 0.000, 0.000, 0.000, 18:29:42.420
158, -100.19, 116.71, 229.48, -3185.88, 0.000, 0.000, 0.000, 18:29:42.420
159, -109.82, 89.58, 220.21, -3069.20, 0.000, 0.000, 0.000, 18:29:42.435
160, -78.04, 91.03, 223.08, -3030.04, 0.000, 0.000, 0.000, 18:29:42.435
161, -82.71, 113.02, 219.77, -3127.95, 0.000, 0.000, 0.000, 18:29:42.436
162, -110.29, 117.16, 230.52, -3131.31, 0.000, 0.000, 0.000, 18:29:42.436
163, -112.08, 82.66, 212.31, -3061.77, 0.000, 0.000, 0.000, 18:29:42.450
164, -75.42, 86.95, 203.79, -3069.49, 0.000, 0.000, 0.000, 18:29:42.450
165, -91.17, 97.64, 218.21, -3097.89, 0.000, 0.000, 0.000, 18:29:42.465
166, -117.55, 106.49, 223.71, -3127.83, 0.000, 0.000, 0.000, 18:29:42.465
167, -99.54, 89.29, 225.08, -3055.19, 0.000, 0.000, 0.000, 18:29:42.466
168, -83.86, 83.94, 222.69, -3018.14, 0.000, 0.000, 0.000, 18:29:42.466
169, -88.14, 105.78, 222.19, -3101.81, 0.000, 0.000, 0.000, 18:29:42.481
170, -105.80, 110.71, 217.63, -3181.79, 0.000, 0.000, 0.000, 18:29:42.481
171, -114.05, 86.87, 216.35, -3036.51, 0.000, 0.000, 0.000, 18:29:42.495
172, -80.88, 90.14, 222.54, -3004.31, 0.000, 0.000, 0.000, 18:29:42.495
173, -91.89, 108.36, 215.40, -3107.29, 0.000, 0.000, 0.000, 18:29:42.496
174, -124.30, 100.20, 222.90, -3129.62, 0.000, 0.000, 0.000, 18:29:42.496
175, -103.96, 90.46, 219.47, -3079.66, 0.000, 0.000, 0.000, 18:29:42.510
176, -63.30, 99.01, 213.19, -3094.54, 0.000, 0.000, 0.000, 18:29:42.510
177, -97.15, 103.89, 216.69, -3106.04, 0.000, 0.000, 0.000, 18:29:42.525
178, -114.64, 105.62, 227.16, -3135.56, 0.000, 0.000, 0.000, 18:29:42.525
179, -108.20, 88.18, 217.74, -3081.69, 0.000, 0.000, 0.000, 18:29:42.526
180, -84.62, 90.33, 217.26, -3010.18, 0.000, 0.000, 0.000, 18:29:42.526
181, -96.63, 99.23, 214.53, -3106.87, 0.000, 0.000, 0.000, 18:29:42.540
182, -116.69, 104.53, 213.21, -3186.81, 0.000, 0.000, 0.000, 18:29:42.541
183, -111.26, 91.99, 222.80, -3062.52, 0.000, 0.000, 0.000, 18:29:42.555
184, -79.66, 95.85, 223.62, -3028.11, 0.000, 0.000, 0.000, 18:29:42.555
185, -89.26, 113.36, 224.51, -3104.51, 0.000, 0.000, 0.000, 18:29:42.556
186, -122.10, 114.01, 230.23, -3105.25, 0.000, 0.000, 0.000, 18:29:42.556
187, -108.52, 90.14, 229.00, -3038.24, 0.000, 0.000, 0.000, 18:29:42.570
188, -70.85, 100.79, 216.04, -3085.69, 0.000, 0.000, 0.000, 18:29:42.570
189, -101.99, 105.04, 214.18, -3108.83, 0.000, 0.000, 0.000, 18:29:42.585
190, -123.55, 112.87, 229.05, -3134.74, 0.000, 0.000, 0.000, 18:29:42.585
191, -105.93, 95.56, 216.69, -3101.83, 0.000, 0.000, 0.000, 18:29:42.586
192, -88.27, 93.40, 212.71, -3025.38, 0.000, 0.000, 0.000, 18:29:42.586
193, -94.77, 108.25, 219.41, -3089.79, 0.000, 0.000, 0.000, 18:29:42.600
194, -111.33, 109.32, 222.51, -3180.07, 0.000, 0.000, 0.000, 18:29:42.600
195, -109.32, 90.18, 222.95, -3051.85, 0.000, 0.000, 0.000, 18:29:42.615
196, -91.68, 88.96, 212.51, -3025.24, 0.000, 0.000, 0.000, 18:29:42.615
197, -95.40, 103.77, 215.64, -3115.33, 0.000, 0.000, 0.000, 18:29:42.616
198, -123.91, 100.12, 227.20, -3122.06, 0.000, 0.000, 0.000, 18:29:42.616
199, -106.87, 88.37, 224.83, -3064.61, 0.000, 0.000, 0.000, 18:29:42.630
200, -69.77, 91.19, 212.12, -3077.99, 0.000, 0.000, 0.000, 18:29:42.631
0, -100.09, 91.92, 217.48, -3098.99, 0.000, 0.000, 0.000, 18:29:42.631
1, -110.44, 105.07, 235.17, -3139.08, 0.000, 0.000, 0.000, 18:29:42.660
2, -99.55, 89.62, 219.19, -3103.20, 0.000, 0.000, 0.000, 18:29:42.660
3, -87.95, 87.58, 219.30, -3005.19, 0.000, 0.000, 0.000, 18:29:42.660
4, -87.33, 109.67, 231.54, -3093.40, 0.000, 0.000, 0.000, 18:29:42.660
5, -123.88, 103.22, 222.39, -3131.40, 0.000, 0.000, 0.000, 18:29:42.661
6, -107.39, 93.76, 222.97, -3062.21, 0.000, 0.000, 0.000, 18:29:42.661
7, -83.36, 88.34, 213.67, -3034.15, 0.000, 0.000, 0.000, 18:29:42.676
8, -75.18, 112.25, 205.94, -3185.71, 0.000, 0.000, 0.000, 18:29:42.676
9, -130.72, 94.16, 219.50, -3151.80, 0.000, 0.000, 0.000, 18:29:42.690
10, -109.12, 88.62, 219.07, -3074.54, 0.000, 0.000, 0.000, 18:29:42.690
11, -81.31, 85.61, 204.54, -3045.38, 0.000, 0.000, 0.000, 18:29:42.691
12, -86.12, 111.16, 224.68, -3074.93, 0.000, 0.000, 0.000, 18:29:42.691
13, -118.31, 107.83, 226.87, -3148.47, 0.000, 0.000, 0.000, 18:29:42.705
14, -103.13, 90.49, 209.69, -3143.48, 0.000, 0.000, 0.000, 18:29:42.705
15, -82.81, 91.57, 218.84, -3009.23, 0.000, 0.000, 0.000, 18:29:42.720
16, -100.08, 103.40, 219.31, -3079.23, 0.000, 0.000, 0.000, 18:29:42.720
17, -114.52, 107.07, 227.26, -3127.27, 0.000, 0.000, 0.000, 18:29:42.721
18, -106.69, 91.75, 225.76, -3068.28, 0.000, 0.000, 0.000, 18:29:42.721
19, -85.07, 83.16, 216.26, -3049.26, 0.000, 0.000, 0.000, 18:29:42.735
20, -78.97, 107.78, 210.05, -3156.92, 0.000, 0.000, 0.000, 18:29:42.735
21, -120.46, 104.83, 225.50, -3146.55, 0.000, 0.000, 0.000, 18:29:42.750
22, -104.66, 88.62, 219.59, -3095.78, 0.000, 0.000, 0.000, 18:29:42.750
23, -77.81, 91.05, 209.41, -3076.97, 0.000, 0.000, 0.000, 18:29:42.751
24, -94.44, 102.58, 217.46, -3120.13, 0.000, 0.000, 0.000, 18:29:42.751
25, -116.95, 105.42, 219.60, -3151.86, 0.000, 0.000, 0.000, 18:29:42.765
26, -95.12, 99.73, 215.25, -3104.12, 0.000, 0.000, 0.000, 18:29:42.765
27, -83.43, 88.36, 223.00, -3010.04, 0.000, 0.000, 0.000, 18:29:42.780
28, -86.51, 105.27, 226.06, -3098.54, 0.000, 0.000, 0.000, 18:29:42.780
29, -107.14, 104.32, 229.54, -3155.05, 0.000, 0.000, 0.000, 18:29:42.783
30, -107.45, 86.95, 227.67, -3061.88, 0.000, 0.000, 0.000, 18:29:42.783
31, -84.68, 89.06, 218.52, -3039.95, 0.000, 0.000, 0.000, 18:29:42.795
32, -81.36, 111.19, 218.06, -3145.57, 0.000, 0.000, 0.000, 18:29:42.795
33, -115.58, 107.48, 227.08, -3135.18, 0.000, 0.000, 0.000, 18:29:42.810
34, -105.10, 95.18, 227.96, -3079.87, 0.000, 0.000, 0.000, 18:29:42.810
35, -76.14, 94.19, 225.03, -3036.39, 0.000, 0.000, 0.000, 18:29:42.811
36, -99.45, 99.26, 223.66, -3080.22, 0.000, 0.000, 0.000, 18:29:42.811
37, -120.43, 103.65, 233.38, -3128.59, 0.000, 0.000, 0.000, 18:29:42.825
38, -101.25, 92.65, 224.15, -3109.13, 0.000, 0.000, 0.000, 18:29:42.825
39, -85.19, 91.68, 222.45, -3011.05, 0.000, 0.000, 0.000, 18:29:42.840
40, -86.31, 113.74, 232.05, -3070.99, 0.000, 0.000, 0.000, 18:29:42.840
41, -114.06, 108.86, 223.85, -3129.51, 0.000, 0.000, 0.000, 18:29:42.841
42, -118.34, 90.25, 222.40, -3039.17, 0.000, 0.000, 0.000, 18:29:42.841
43, -79.03, 93.18, 220.47, -3014.57, 0.000, 0.000, 0.000, 18:29:42.855
44, -81.40, 108.95, 213.02, -3131.72, 0.000, 0.000, 0.000, 18:29:42.855
45, -114.99, 113.12, 230.56, -3136.50, 0.000, 0.000, 0.000, 18:29:42.870
46, -109.18, 90.89, 224.72, -3075.86, 0.000, 0.000, 0.000, 18:29:42.870
47, -80.82, 85.73, 212.31, -3040.99, 0.000, 0.000, 0.000, 18:29:42.871
48, -105.34, 103.03, 215.90, -3065.69, 0.000, 0.000, 0.000, 18:29:42.871
49, -126.61, 103.18, 223.08, -3119.91, 0.000, 0.000, 0.000, 18:29:42.885
50, -112.06, 89.42, 213.70, -3094.57, 0.000, 0.000, 0.000, 18:29:42.885
51, -92.78, 88.59, 217.09, -2998.45, 0.000, 0.000, 0.000, 18:29:42.900
52, -97.12, 103.70, 220.68, -3084.71, 0.000, 0.000, 0.000, 18:29:42.900
53, -123.78, 102.00, 219.02, -3159.18, 0.000, 0.000, 0.000, 18:29:42.901
54, -110.95, 86.32, 224.31, -3068.96, 0.000, 0.000, 0.000, 18:29:42.901
55, -83.89, 86.94, 216.43, -3045.10, 0.000, 0.000, 0.000, 18:29:42.915
56, -86.50, 99.53, 206.10, -3149.32, 0.000, 0.000, 0.000, 18:29:42.915
57, -123.97, 104.47, 226.76, -3103.01, 0.000, 0.000, 0.000, 18:29:42.930
58, -111.20, 98.16, 227.31, -3058.95, 0.000, 0.000, 0.000, 18:29:42.930
59, -76.74, 97.72, 218.67, -3030.41, 0.000, 0.000, 0.000, 18:29:42.931
60, -92.37, 108.87, 225.24, -3063.95, 0.000, 0.000, 0.000, 18:29:42.931
61, -113.63, 115.16, 231.86, -3127.77, 0.000, 0.000, 0.000, 18:29:42.945
62, -98.79, 96.63, 216.50, -3123.99, 0.000, 0.000, 0.000, 18:29:42.945
63, -92.29, 92.63, 214.69, -2994.90, 0.000, 0.000, 0.000, 18:29:42.975
64, -86.95, 116.24, 227.14, -3070.13, 0.000, 0.000, 0.000, 18:29:42.975
65, -109.77, 114.31, 234.58, -3102.69, 0.000, 0.000, 0.000, 18:29:42.975
66, -105.85, 96.04, 233.02, -3036.73, 0.000, 0.000, 0.000, 18:29:42.975
67, -84.42, 95.83, 224.32, -2996.82, 0.000, 0.000, 0.000, 18:29:42.976
68, -88.48, 109.96, 224.58, -3074.65, 0.000, 0.000, 0.000, 18:29:42.976
69, -120.39, 104.98, 228.35, -3107.90, 0.000, 0.000, 0.000, 18:29:42.977
70, -100.28, 99.32, 234.48, -3076.20, 0.000, 0.000, 0.000, 18:29:42.977
71, -40.66, 107.49, 208.01, -3165.52, 0.000, 0.000, 0.000, 18:29:42.990
72, -93.69, 108.76, 224.07, -3062.87, 0.000, 0.000, 0.000, 18:29:42.990
73, -116.56, 112.34, 225.55, -3129.18, 0.000, 0.000, 0.000, 18:29:43.005
74, -100.96, 104.35, 221.24, -3087.82, 0.000, 0.000, 0.000, 18:29:43.005
75, -83.87, 99.18, 223.19, -3010.18, 0.000, 0.000, 0.000, 18:29:43.020
76, -88.11, 108.74, 224.45, -3072.97, 0.000, 0.000, 0.000, 18:29:43.020
77, -115.22, 111.14, 229.25, -3106.56, 0.000, 0.000, 0.000, 18:29:43.021
78, -107.90, 97.58, 240.37, -3018.45, 0.000, 0.000, 0.000, 18:29:43.021
79, -76.29, 91.83, 227.84, -3012.87, 0.000, 0.000, 0.000, 18:29:43.035
80, -72.38, 110.30, 219.48, -3150.96, 0.000, 0.000, 0.000, 18:29:43.035
81, -120.82, 110.63, 223.71, -3118.78, 0.000, 0.000, 0.000, 18:29:43.050
82, -112.49, 89.87, 222.90, -3054.53, 0.000, 0.000, 0.000, 18:29:43.050
83, -81.76, 90.31, 220.26, -3051.55, 0.000, 0.000, 0.000, 18:29:43.051
84, -88.30, 111.24, 226.25, -3077.53, 0.000, 0.000, 0.000, 18:29:43.051
85, -116.63, 115.35, 228.01, -3120.13, 0.000, 0.000, 0.000, 18:29:43.065
86, -103.26, 92.23, 214.61, -3130.05, 0.000, 0.000, 0.000, 18:29:43.065
87, -80.80, 99.23, 220.04, -3025.04, 0.000, 0.000, 0.000, 18:29:43.080
88, -90.60, 104.24, 219.68, -3114.18, 0.000, 0.000, 0.000, 18:29:43.080
89, -110.34, 113.75, 223.88, -3148.63, 0.000, 0.000, 0.000, 18:29:43.081
90, -107.80, 91.62, 228.33, -3071.72, 0.000, 0.000, 0.000, 18:29:43.081
91, -74.87, 87.28, 219.37, -3042.14, 0.000, 0.000, 0.000, 18:29:43.095
92, -69.99, 110.07, 217.56, -3163.82, 0.000, 0.000, 0.000, 18:29:43.095
93, -105.13, 114.87, 232.37, -3145.30, 0.000, 0.000, 0.000, 18:29:43.110
94, -104.59, 95.69, 226.04, -3085.62, 0.000, 0.000, 0.000, 18:29:43.110
95, -72.77, 103.07, 215.13, -3064.65, 0.000, 0.000, 0.000, 18:29:43.111
96, -88.07, 113.23, 220.22, -3093.43, 0.000, 0.000, 0.000, 18:29:43.111
97, -112.27, 109.43, 221.85, -3149.96, 0.000, 0.000, 0.000, 18:29:43.125
98, -97.78, 99.90, 220.39, -3098.72, 0.000, 0.000, 0.000, 18:29:43.125
99, -86.07, 92.15, 217.19, -3016.38, 0.000, 0.000, 0.000, 18:29:43.140
100, -86.81, 103.55, 220.06, -3107.40, 0.000, 0.000, 0.000, 18:29:43.140
101, -115.77, 109.12, 218.32, -3143.10, 0.000, 0.000, 0.000, 18:29:43.141
102, -112.78, 92.68, 224.34, -3058.63, 0.000, 0.000, 0.000, 18:29:43.141
103, -82.25, 88.90, 218.18, -3028.22, 0.000, 0.000, 0.000, 18:29:43.155
104, -81.54, 104.58, 212.75, -3132.21, 0.000, 0.000, 0.000, 18:29:43.155
105, -123.69, 96.03, 221.58, -3119.79, 0.000, 0.000, 0.000, 18:29:43.170
106, -114.89, 89.56, 226.68, -3070.40, 0.000, 0.000, 0.000, 18:29:43.170
107, -84.47, 86.61, 214.50, -3021.82, 0.000, 0.000, 0.000, 18:29:43.171
108, -94.18, 101.17, 230.75, -3060.09, 0.000, 0.000, 0.000, 18:29:43.171
109, -126.64, 96.65, 226.30, -3126.86, 0.000, 0.000, 0.000, 18:29:43.185
110, -95.86, 99.81, 229.30, -3103.28, 0.000, 0.000, 0.000, 18:29:43.185
111, -88.05, 82.39, 221.10, -3035.46, 0.000, 0.000, 0.000, 18:29:43.200
112, -91.12, 102.49, 224.53, -3068.67, 0.000, 0.000, 0.000, 18:29:43.200
113, -113.06, 111.85, 227.23, -3142.48, 0.000, 0.000, 0.000, 18:29:43.201
114, -124.82, 83.38, 224.25, -3060.63, 0.000, 0.000, 0.000, 18:29:43.201
115, -86.44, 91.42, 221.85, -3024.54, 0.000, 0.000, 0.000, 18:29:43.215
116, -84.23, 107.91, 213.07, -3136.14, 0.000, 0.000, 0.000, 18:29:43.215
117, -125.92, 104.74, 227.66, -3124.84, 0.000, 0.000, 0.000, 18:29:43.232
118, -108.77, 99.22, 231.65, -3056.47, 0.000, 0.000, 0.000, 18:29:43.232
119, -77.95, 95.27, 220.73, -3051.02, 0.000, 0.000, 0.000, 18:29:43.232
120, -92.53, 104.17, 226.44, -3081.35, 0.000, 0.000, 0.000, 18:29:43.232
121, -111.71, 108.32, 234.00, -3123.02, 0.000, 0.000, 0.000, 18:29:43.245
122, -99.43, 99.40, 224.34, -3115.48, 0.000, 0.000, 0.000, 18:29:43.245
123, -88.62, 91.18, 222.22, -2997.13, 0.000, 0.000, 0.000, 18:29:43.260
124, -80.81, 114.35, 230.73, -3076.87, 0.000, 0.000, 0.000, 18:29:43.260
125, -115.33, 112.65, 226.86, -3120.94, 0.000, 0.000, 0.000, 18:29:43.261
126, -112.01, 89.48, 228.61, -3055.75, 0.000, 0.000, 0.000, 18:29:43.261
127, -78.62, 92.05, 226.15, -3022.77, 0.000, 0.000, 0.000, 18:29:43.275
128, -71.45, 105.76, 222.08, -3136.63, 0.000, 0.000, 0.000, 18:29:43.275
129, -112.65, 110.66, 235.81, -3104.26, 0.000, 0.000, 0.000, 18:29:43.305
130, -110.62, 91.49, 229.78, -3057.43, 0.000, 0.000, 0.000, 18:29:43.305
131, -77.63, 90.63, 219.77, -3050.99, 0.000, 0.000, 0.000, 18:29:43.306
132, -96.08, 102.46, 218.46, -3073.57, 0.000, 0.000, 0.000, 18:29:43.306
133, -117.94, 104.21, 224.23, -3127.82, 0.000, 0.000, 0.000, 18:29:43.306
134, -120.39, 81.64, 219.03, -3064.78, 0.000, 0.000, 0.000, 18:29:43.306
135, -88.87, 87.49, 224.66, -3004.29, 0.000, 0.000, 0.000, 18:29:43.307
136, -85.27, 106.18, 220.43, -3090.63, 0.000, 0.000, 0.000, 18:29:43.307
137, -70.49, 119.18, 212.55, -3278.52, 0.000, 0.000, 0.000, 18:29:43.320
138, -119.41, 91.67, 222.85, -3072.92, 0.000, 0.000, 0.000, 18:29:43.320
139, -80.27, 86.55, 214.83, -3035.23, 0.000, 0.000, 0.000, 18:29:43.335
140, -86.31, 104.96, 217.50, -3111.00, 0.000, 0.000, 0.000, 18:29:43.335
141, -121.34, 107.21, 223.40, -3137.40, 0.000, 0.000, 0.000, 18:29:43.350
142, -113.42, 89.17, 217.33, -3089.98, 0.000, 0.000, 0.000, 18:29:43.350
143, -81.28, 92.90, 211.93, -3034.47, 0.000, 0.000, 0.000, 18:29:43.351
144, -93.88, 103.91, 222.31, -3074.70, 0.000, 0.000, 0.000, 18:29:43.351
145, -110.08, 115.17, 232.35, -3136.35, 0.000, 0.000, 0.000, 18:29:43.365
146, -98.66, 100.35, 221.95, -3123.39, 0.000, 0.000, 0.000, 18:29:43.365
147, -91.84, 86.15, 217.71, -3023.11, 0.000, 0.000, 0.000, 18:29:43.380
148, -92.67, 105.34, 218.53, -3093.22, 0.000, 0.000, 0.000, 18:29:43.380
149, -120.26, 107.80, 214.81, -3134.67, 0.000, 0.000, 0.000, 18:29:43.381
150, -124.04, 88.79, 222.00, -3072.62, 0.000, 0.000, 0.000, 18:29:43.381
151, -85.17, 88.76, 215.42, -3048.88, 0.000, 0.000, 0.000, 18:29:43.395
152, -78.47, 107.90, 210.05, -3147.17, 0.000, 0.000, 0.000, 18:29:43.395
153, -116.40, 112.09, 231.98, -3134.92, 0.000, 0.000, 0.000, 18:29:43.410
154, -115.50, 96.08, 218.25, -3083.85, 0.000, 0.000, 0.000, 18:29:43.410
155, -77.96, 95.38, 221.06, -3063.75, 0.000, 0.000, 0.000, 18:29:43.411
156, -89.39, 106.02, 220.22, -3079.93, 0.000, 0.000, 0.000, 18:29:43.411
157, -103.07, 120.76, 233.52, -3142.49, 0.000, 0.000, 0.000, 18:29:43.425
158, -93.08, 98.42, 219.27, -3110.50, 0.000, 0.000, 0.000, 18:29:43.425
159, -88.13, 88.62, 214.18, -3028.75, 0.000, 0.000, 0.000, 18:29:43.440
160, -87.94, 110.41, 219.15, -3085.95, 0.000, 0.000, 0.000, 18:29:43.440
161, -111.33, 105.04, 221.00, -3151.14, 0.000, 0.000, 0.000, 18:29:43.441
162, -107.80, 92.25, 221.43, -3057.35, 0.000, 0.000, 0.000, 18:29:43.441
163, -81.90, 86.09, 217.21, -3049.23, 0.000, 0.000, 0.000, 18:29:43.455
164, -68.00, 111.48, 218.66, -3138.91, 0.000, 0.000, 0.000, 18:29:43.455
165, -109.65, 109.49, 230.98, -3129.00, 0.000, 0.000, 0.000, 18:29:43.485
166, -109.08, 92.08, 227.35, -3080.64, 0.000, 0.000, 0.000, 18:29:43.485
167, -74.03, 90.78, 216.97, -3058.65, 0.000, 0.000, 0.000, 18:29:43.486
168, -86.01, 105.60, 224.02, -3066.50, 0.000, 0.000, 0.000, 18:29:43.486
169, -105.36, 110.69, 236.84, -3141.68, 0.000, 0.000, 0.000, 18:29:43.486
170, -100.43, 97.26, 233.76, -3065.52, 0.000, 0.000, 0.000, 18:29:43.486
171, -84.70, 84.60, 225.19, -3023.21, 0.000, 0.000, 0.000, 18:29:43.487
172, -85.43, 102.83, 221.68, -3091.51, 0.000, 0.000, 0.000, 18:29:43.487
173, -82.73, 111.76, 211.19, -3281.78, 0.000, 0.000, 0.000, 18:29:43.500
174, -130.31, 82.35, 221.60, -3039.14, 0.000, 0.000, 0.000, 18:29:43.500
175, -91.95, 84.27, 218.42, -3013.15, 0.000, 0.000, 0.000, 18:29:43.515
176, -81.22, 109.67, 226.01, -3085.84, 0.000, 0.000, 0.000, 18:29:43.515
177, -119.23, 105.66, 232.48, -3134.63, 0.000, 0.000, 0.000, 18:29:43.530
178, -109.64, 90.26, 223.43, -3105.80, 0.000, 0.000, 0.000, 18:29:43.530
179, -73.55, 93.81, 220.05, -3044.09, 0.000, 0.000, 0.000, 18:29:43.531
180, -88.17, 108.86, 225.17, -3064.74, 0.000, 0.000, 0.000, 18:29:43.531
181, -123.62, 103.94, 225.39, -3117.08, 0.000, 0.000, 0.000, 18:29:43.545
182, -99.26, 96.22, 218.94, -3125.60, 0.000, 0.000, 0.000, 18:29:43.545
183, -83.26, 98.16, 229.04, -3003.01, 0.000, 0.000, 0.000, 18:29:43.560
184, -78.73, 113.46, 230.71, -3077.87, 0.000, 0.000, 0.000, 18:29:43.560
185, -100.99, 111.36, 224.22, -3175.22, 0.000, 0.000, 0.000, 18:29:43.561
186, -108.37, 100.45, 227.59, -3052.48, 0.000, 0.000, 0.000, 18:29:43.561
187, -81.86, 97.02, 219.79, -3012.26, 0.000, 0.000, 0.000, 18:29:43.575
188, -74.81, 110.27, 218.67, -3126.07, 0.000, 0.000, 0.000, 18:29:43.575
189, -117.09, 112.28, 228.53, -3116.64, 0.000, 0.000, 0.000, 18:29:43.590
190, -112.72, 91.03, 222.11, -3087.73, 0.000, 0.000, 0.000, 18:29:43.590
191, -83.38, 90.64, 210.96, -3044.95, 0.000, 0.000, 0.000, 18:29:43.591
192, -101.71, 101.73, 210.11, -3062.10, 0.000, 0.000, 0.000, 18:29:43.591
193, -123.96, 101.46, 219.87, -3141.07, 0.000, 0.000, 0.000, 18:29:43.620
194, -110.93, 90.43, 213.05, -3127.52, 0.000, 0.000, 0.000, 18:29:43.620
195, -94.20, 83.74, 212.09, -3011.50, 0.000, 0.000, 0.000, 18:29:43.621
196, -88.27, 108.61, 220.66, -3080.30, 0.000, 0.000, 0.000, 18:29:43.621
197, -113.55, 108.89, 223.75, -3137.28, 0.000, 0.000, 0.000, 18:29:43.622
198, -116.09, 84.73, 223.66, -3054.68, 0.000, 0.000, 0.000, 18:29:43.622
199, -81.35, 88.12, 218.22, -3045.13, 0.000, 0.000, 0.000, 18:29:43.635
200, -60.06, 109.05, 210.60, -3170.71, 0.000, 0.000, 0.000, 18:29:43.635
0, -130.32, 93.17, 217.44, -3144.76, 0.000, 0.000, 0.000, 18:29:43.636
1, -117.48, 85.68, 223.84, -3074.05, 0.000, 0.000, 0.000, 18:29:43.650
2, -69.58, 95.16, 217.15, -3067.51, 0.000, 0.000, 0.000, 18:29:43.650
3, -88.13, 106.06, 225.92, -3038.22, 0.000, 0.000, 0.000, 18:29:43.665
4, -118.80, 106.12, 226.65, -3115.33, 0.000, 0.000, 0.000, 18:29:43.665
5, -110.81, 90.57, 227.22, -3069.49, 0.000, 0.000, 0.000, 18:29:43.666
6, -87.60, 88.66, 228.17, -2983.25, 0.000, 0.000, 0.000, 18:29:43.666
7, -91.32, 105.75, 224.53, -3059.13, 0.000, 0.000, 0.000, 18:29:43.680
8, -104.52, 110.79, 222.09, -3158.14, 0.000, 0.000, 0.000, 18:29:43.682
9, -120.40, 94.34, 234.13, -3022.25, 0.000, 0.000, 0.000, 18:29:43.695
10, -99.32, 86.44, 226.09, -2988.57, 0.000, 0.000, 0.000, 18:29:43.695
11, -80.81, 108.67, 227.94, -3086.78, 0.000, 0.000, 0.000, 18:29:43.696
12, -111.90, 112.84, 232.58, -3119.72, 0.000, 0.000, 0.000, 18:29:43.696
13, -106.71, 92.47, 225.88, -3085.89, 0.000, 0.000, 0.000, 18:29:43.710
14, -70.17, 96.35, 213.32, -3073.79, 0.000, 0.000, 0.000, 18:29:43.710
15, -91.38, 97.45, 217.71, -3070.62, 0.000, 0.000, 0.000, 18:29:43.725
16, -119.19, 105.22, 227.41, -3134.58, 0.000, 0.000, 0.000, 18:29:43.725
17, -110.14, 97.15, 227.21, -3079.37, 0.000, 0.000, 0.000, 18:29:43.726
18, -93.01, 88.18, 220.99, -2996.14, 0.000, 0.000, 0.000, 18:29:43.726
19, -91.12, 104.03, 215.61, -3087.73, 0.000, 0.000, 0.000, 18:29:43.740
20, -102.72, 108.11, 218.52, -3178.55, 0.000, 0.000, 0.000, 18:29:43.740
21, -123.18, 83.06, 220.50, -3058.93, 0.000, 0.000, 0.000, 18:29:43.755
22, -89.40, 81.64, 217.87, -3029.58, 0.000, 0.000, 0.000, 18:29:43.755
23, -77.26, 104.32, 219.41, -3079.99, 0.000, 0.000, 0.000, 18:29:43.756
24, -117.03, 101.00, 228.39, -3120.53, 0.000, 0.000, 0.000, 18:29:43.756
25, -120.01, 89.16, 223.79, -3073.85, 0.000, 0.000, 0.000, 18:29:43.770
26, -74.38, 90.57, 217.27, -3072.65, 0.000, 0.000, 0.000, 18:29:43.770
27, -86.85, 108.57, 229.35, -3051.65, 0.000, 0.000, 0.000, 18:29:43.785
28, -117.95, 108.40, 228.94, -3133.50, 0.000, 0.000, 0.000, 18:29:43.785
29, -112.35, 89.66, 218.11, -3119.55, 0.000, 0.000, 0.000, 18:29:43.786
30, -80.04, 85.52, 217.78, -3047.30, 0.000, 0.000, 0.000, 18:29:43.786
31, -74.91, 109.30, 220.02, -3101.13, 0.000, 0.000, 0.000, 18:29:43.800
32, -103.34, 105.98, 216.17, -3196.08, 0.000, 0.000, 0.000, 18:29:43.800
33, -111.51, 93.04, 224.61, -3088.85, 0.000, 0.000, 0.000, 18:29:43.815
34, -84.27, 86.66, 216.66, -3038.64, 0.000, 0.000, 0.000, 18:29:43.815
35, -81.38, 100.38, 219.58, -3115.91, 0.000, 0.000, 0.000, 18:29:43.818
36, -121.14, 102.13, 226.36, -3135.86, 0.000, 0.000, 0.000, 18:29:43.818
37, -112.64, 92.93, 225.93, -3102.41, 0.000, 0.000, 0.000, 18:29:43.830
38, -71.01, 90.75, 212.56, -3098.96, 0.000, 0.000, 0.000, 18:29:43.830
39, -82.57, 102.38, 218.89, -3089.40, 0.000, 0.000, 0.000, 18:29:43.845
40, -107.94, 106.47, 226.66, -3152.58, 0.000, 0.000, 0.000, 18:29:43.845
41, -105.53, 88.62, 222.65, -3124.63, 0.000, 0.000, 0.000, 18:29:43.846
42, -85.94, 80.57, 212.55, -3069.21, 0.000, 0.000, 0.000, 18:29:43.846
43, -70.35, 110.39, 225.56, -3078.87, 0.000, 0.000, 0.000, 18:29:43.860
44, -100.00, 113.12, 223.08, -3182.95, 0.000, 0.000, 0.000, 18:29:43.860
45, -106.76, 100.38, 237.34, -3052.48, 0.000, 0.000, 0.000, 18:29:43.875
46, -81.81, 89.78, 226.31, -3033.73, 0.000, 0.000, 0.000, 18:29:43.876
47, -82.66, 101.74, 221.25, -3095.67, 0.000, 0.000, 0.000, 18:29:43.876
48, -111.85, 111.04, 235.62, -3119.93, 0.000, 0.000, 0.000, 18:29:43.876
49, -108.38, 92.53, 229.12, -3080.88, 0.000, 0.000, 0.000, 18:29:43.890
50, -73.72, 90.72, 214.69, -3084.11, 0.000, 0.000, 0.000, 18:29:43.890
51, -90.05, 102.64, 218.78, -3089.79, 0.000, 0.000, 0.000, 18:29:43.905
52, -118.52, 101.74, 219.00, -3140.94, 0.000, 0.000, 0.000, 18:29:43.905
53, -112.14, 93.29, 221.86, -3092.99, 0.000, 0.000, 0.000, 18:29:43.906
54, -88.59, 83.76, 222.26, -3026.28, 0.000, 0.000, 0.000, 18:29:43.906
55, -89.22, 94.28, 221.17, -3061.86, 0.000, 0.000, 0.000, 18:29:43.935
56, -104.47, 104.35, 221.20, -3179.08, 0.000, 0.000, 0.000, 18:29:43.935
57, -116.95, 85.30, 224.88, -3076.94, 0.000, 0.000, 0.000, 18:29:43.935
58, -90.29, 81.99, 218.09, -3037.67, 0.000, 0.000, 0.000, 18:29:43.936
59, -90.15, 98.68, 217.10, -3070.11, 0.000, 0.000, 0.000, 18:29:43.936
60, -112.93, 110.95, 228.50, -3133.28, 0.000, 0.000, 0.000, 18:29:43.937
61, -117.22, 85.22, 220.64, -3084.34, 0.000, 0.000, 0.000, 18:29:43.950
62, -63.42, 93.29, 208.39, -3114.81, 0.000, 0.000, 0.000, 18:29:43.950
63, -85.93, 97.70, 221.49, -3086.74, 0.000, 0.000, 0.000, 18:29:43.965
64, -109.02, 105.77, 225.59, -3134.60, 0.000, 0.000, 0.000, 18:29:43.965
65, -112.62, 91.33, 221.10, -3116.26, 0.000, 0.000, 0.000, 18:29:43.966
66, -92.32, 78.97, 218.19, -3014.68, 0.000, 0.000, 0.000, 18:29:43.966
67, -83.94, 100.87, 222.66, -3087.52, 0.000, 0.000, 0.000, 18:29:43.980
68, -102.89, 104.77, 219.19, -3186.42, 0.000, 0.000, 0.000, 18:29:43.980
69, -116.31, 92.37, 225.47, -3077.66, 0.000, 0.000, 0.000, 18:29:43.995
70, -90.05, 84.61, 216.24, -3039.97, 0.000, 0.000, 0.000, 18:29:43.995
71, -85.56, 100.91, 216.15, -3090.30, 0.000, 0.000, 0.000, 18:29:43.996
72, -115.01, 107.90, 229.45, -3129.64, 0.000, 0.000, 0.000, 18:29:43.996
73, -108.49, 92.91, 226.41, -3117.40, 0.000, 0.000, 0.000, 18:29:44.010
74, -70.68, 91.94, 219.10, -3109.78, 0.000, 0.000, 0.000, 18:29:44.010
75, -95.97, 98.74, 217.36, -3071.19, 0.000, 0.000, 0.000, 18:29:44.025
76, -119.39, 107.73, 226.52, -3131.44, 0.000, 0.000, 0.000, 18:29:44.025
77, -108.64, 94.54, 225.69, -3102.89, 0.000, 0.000, 0.000, 18:29:44.026
78, -94.95, 81.52, 216.29, -3029.54, 0.000, 0.000, 0.000, 18:29:44.026
79, -93.98, 97.75, 214.14, -3092.79, 0.000, 0.000, 0.000, 18:29:44.040
80, -98.37, 108.03, 221.30, -3180.47, 0.000, 0.000, 0.000, 18:29:44.040
81, -126.27, 82.06, 222.58, -3056.33, 0.000, 0.000, 0.000, 18:29:44.055
82, -90.94, 79.63, 216.80, -3042.49, 0.000, 0.000, 0.000, 18:29:44.055
83, -90.40, 96.90, 211.67, -3079.28, 0.000, 0.000, 0.000, 18:29:44.056
84, -130.07, 96.93, 217.67, -3111.67, 0.000, 0.000, 0.000, 18:29:44.056
85, -120.48, 85.72, 226.39, -3086.65, 0.000, 0.000, 0.000, 18:29:44.070
86, -79.63, 87.78, 210.07, -3067.97, 0.000, 0.000, 0.000, 18:29:44.070
87, -89.60, 99.39, 215.43, -3083.71, 0.000, 0.000, 0.000, 18:29:44.085
88, -113.92, 107.74, 224.83, -3144.98, 0.000, 0.000, 0.000, 18:29:44.085
89, -111.36, 90.79, 212.90, -3109.78, 0.000, 0.000, 0.000, 18:29:44.086
90, -92.61, 85.80, 216.80, -3031.73, 0.000, 0.000, 0.000, 18:29:44.086
91, -88.08, 97.96, 212.79, -3077.61, 0.000, 0.000, 0.000, 18:29:44.100
92, -108.85, 106.54, 211.43, -3191.66, 0.000, 0.000, 0.000, 18:29:44.100
93, -128.23, 81.23, 214.03, -3086.10, 0.000, 0.000, 0.000, 18:29:44.116
94, -99.10, 82.11, 209.73, -3014.62, 0.000, 0.000, 0.000, 18:29:44.116
95, -98.20, 93.26, 207.27, -3091.98, 0.000, 0.000, 0.000, 18:29:44.116
96, -122.56, 101.73, 222.25, -3125.54, 0.000, 0.000, 0.000, 18:29:44.116
97, -114.45, 91.20, 224.18, -3095.26, 0.000, 0.000, 0.000, 18:29:44.130
98, -76.52, 93.51, 217.70, -3084.10, 0.000, 0.000, 0.000, 18:29:44.130
99, -76.13, 114.23, 237.49, -3076.37, 0.000, 0.000, 0.000, 18:29:44.145
100, -115.48, 102.77, 225.92, -3135.46, 0.000, 0.000, 0.000, 18:29:44.145
101, -111.31, 96.48, 223.66, -3117.73, 0.000, 0.000, 0.000, 18:29:44.146
102, -83.50, 91.72, 229.15, -3019.05, 0.000, 0.000, 0.000, 18:29:44.146
103, -79.40, 100.85, 225.04, -3080.78, 0.000, 0.000, 0.000, 18:29:44.160
104, -102.10, 113.69, 226.99, -3190.26, 0.000, 0.000, 0.000, 18:29:44.160
105, -109.62, 95.19, 235.00, -3089.44, 0.000, 0.000, 0.000, 18:29:44.175
106, -84.94, 87.81, 223.50, -3044.58, 0.000, 0.000, 0.000, 18:29:44.175
107, -77.73, 106.68, 222.93, -3093.41, 0.000, 0.000, 0.000, 18:29:44.176
108, -113.52, 111.64, 230.92, -3114.46, 0.000, 0.000, 0.000, 18:29:44.176
109, -104.73, 94.52, 229.99, -3115.59, 0.000, 0.000, 0.000, 18:29:44.190
110, -68.37, 93.36, 215.55, -3092.96, 0.000, 0.000, 0.000, 18:29:44.190
111, -78.89, 103.86, 220.39, -3074.98, 0.000, 0.000, 0.000, 18:29:44.205
112, -101.50, 112.52, 232.55, -3156.69, 0.000, 0.000, 0.000, 18:29:44.205
113, -89.79, 107.54, 235.15, -3122.27, 0.000, 0.000, 0.000, 18:29:44.206
114, -77.60, 87.99, 223.74, -3038.29, 0.000, 0.000, 0.000, 18:29:44.206
115, -74.01, 103.51, 224.08, -3092.58, 0.000, 0.000, 0.000, 18:29:44.220
116, -83.50, 115.72, 231.74, -3203.38, 0.000, 0.000, 0.000, 18:29:44.220
117, -100.51, 99.40, 232.48, -3075.75, 0.000, 0.000, 0.000, 18:29:44.235
118, -78.52, 86.42, 220.06, -3033.08, 0.000, 0.000, 0.000, 18:29:44.235
119, -77.97, 102.92, 219.14, -3077.91, 0.000, 0.000, 0.000, 18:29:44.236
120, -116.23, 107.63, 221.58, -3139.56, 0.000, 0.000, 0.000, 18:29:44.236
121, -109.87, 93.65, 225.75, -3109.83, 0.000, 0.000, 0.000, 18:29:44.265
122, -79.50, 97.05, 211.59, -3082.66, 0.000, 0.000, 0.000, 18:29:44.265
123, -87.11, 104.55, 221.16, -3073.56, 0.000, 0.000, 0.000, 18:29:44.266
124, -113.13, 109.12, 220.08, -3171.26, 0.000, 0.000, 0.000, 18:29:44.266
125, -111.41, 101.52, 227.52, -3100.58, 0.000, 0.000, 0.000, 18:29:44.266
126, -87.69, 87.93, 216.49, -3013.59, 0.000, 0.000, 0.000, 18:29:44.266
127, -88.30, 98.33, 219.37, -3062.17, 0.000, 0.000, 0.000, 18:29:44.280
128, -93.93, 106.72, 210.43, -3234.75, 0.000, 0.000, 0.000, 18:29:44.280
129, -126.04, 88.61, 219.53, -3081.67, 0.000, 0.000, 0.000, 18:29:44.295
130, -100.64, 76.59, 211.89, -3019.00, 0.000, 0.000, 0.000, 18:29:44.295
131, -90.61, 105.61, 215.06, -3053.30, 0.000, 0.000, 0.000, 18:29:44.296
132, -118.07, 108.69, 227.33, -3100.13, 0.000, 0.000, 0.000, 18:29:44.296
133, -116.40, 101.73, 229.13, -3093.20, 0.000, 0.000, 0.000, 18:29:44.310
134, -74.39, 95.73, 215.22, -3079.39, 0.000, 0.000, 0.000, 18:29:44.311
135, -82.55, 109.98, 224.23, -3047.81, 0.000, 0.000, 0.000, 18:29:44.326
136, -123.44, 103.28, 222.20, -3107.85, 0.000, 0.000, 0.000, 18:29:44.326
137, -116.86, 93.93, 221.18, -3085.48, 0.000, 0.000, 0.000, 18:29:44.326
138, -94.42, 86.43, 221.64, -3006.21, 0.000, 0.000, 0.000, 18:29:44.326
139, -88.56, 97.46, 218.55, -3058.10, 0.000, 0.000, 0.000, 18:29:44.340
140, -101.33, 111.85, 221.31, -3174.70, 0.000, 0.000, 0.000, 18:29:44.340
141, -130.19, 85.87, 218.63, -3059.18, 0.000, 0.000, 0.000, 18:29:44.355
142, -89.74, 89.43, 218.81, -3020.78, 0.000, 0.000, 0.000, 18:29:44.355
143, -78.88, 104.86, 220.35, -3055.73, 0.000, 0.000, 0.000, 18:29:44.356
144, -121.13, 105.30, 223.93, -3123.68, 0.000, 0.000, 0.000, 18:29:44.356
145, -125.01, 91.58, 223.26, -3081.20, 0.000, 0.000, 0.000, 18:29:44.370
146, -88.71, 93.02, 209.11, -3063.57, 0.000, 0.000, 0.000, 18:29:44.370
147, -91.86, 107.66, 221.22, -3043.85, 0.000, 0.000, 0.000, 18:29:44.385
148, -115.97, 110.85, 222.07, -3143.50, 0.000, 0.000, 0.000, 18:29:44.385
149, -108.54, 100.81, 227.24, -3112.86, 0.000, 0.000, 0.000, 18:29:44.386
150, -89.82, 90.75, 216.31, -3030.75, 0.000, 0.000, 0.000, 18:29:44.386
151, -83.58, 111.00, 221.82, -3073.71, 0.000, 0.000, 0.000, 18:29:44.400
152, -95.48, 122.20, 220.57, -3179.99, 0.000, 0.000, 0.000, 18:29:44.401
153, -116.93, 98.36, 222.84, -3070.85, 0.000, 0.000, 0.000, 18:29:44.415
154, -81.62, 94.08, 219.73, -3030.88, 0.000, 0.000, 0.000, 18:29:44.415
155, -83.67, 104.42, 215.73, -3074.05, 0.000, 0.000, 0.000, 18:29:44.416
156, -110.74, 107.03, 225.13, -3120.66, 0.000, 0.000, 0.000, 18:29:44.416
157, -119.01, 95.30, 220.98, -3075.67, 0.000, 0.000, 0.000, 18:29:44.430
158, -71.90, 94.79, 221.48, -3048.57, 0.000, 0.000, 0.000, 18:29:44.430
159, -85.62, 107.89, 221.42, -3085.16, 0.000, 0.000, 0.000, 18:29:44.445
160, -102.80, 117.01, 231.61, -3132.50, 0.000, 0.000, 0.000, 18:29:44.445
161, -111.31, 95.05, 224.75, -3108.89, 0.000, 0.000, 0.000, 18:29:44.446
162, -87.20, 88.87, 223.16, -3020.36, 0.000, 0.000, 0.000, 18:29:44.446
163, -79.99, 113.80, 225.90, -3059.98, 0.000, 0.000, 0.000, 18:29:44.460
164, -98.87, 119.35, 220.93, -3172.88, 0.000, 0.000, 0.000, 18:29:44.460
165, -113.66, 100.09, 225.70, -3092.75, 0.000, 0.000, 0.000, 18:29:44.475
166, -83.55, 89.84, 223.93, -3044.56, 0.000, 0.000, 0.000, 18:29:44.475
167, -79.71, 104.07, 212.11, -3074.37, 0.000, 0.000, 0.000, 18:29:44.476
168, -111.05, 108.44, 229.79, -3124.86, 0.000, 0.000, 0.000, 18:29:44.476
169, -121.51, 93.66, 219.90, -3110.36, 0.000, 0.000, 0.000, 18:29:44.490
170, -71.76, 97.19, 218.41, -3088.36, 0.000, 0.000, 0.000, 18:29:44.490
171, -75.59, 107.22, 224.16, -3079.43, 0.000, 0.000, 0.000, 18:29:44.505
172, -103.85, 118.77, 235.29, -3114.89, 0.000, 0.000, 0.000, 18:29:44.505
173, -107.56, 114.28, 230.57, -3081.81, 0.000, 0.000, 0.000, 18:29:44.506
174, -90.32, 98.60, 220.79, -2993.35, 0.000, 0.000, 0.000, 18:29:44.506
175, -79.96, 112.27, 228.18, -3062.75, 0.000, 0.000, 0.000, 18:29:44.520
176, -108.02, 111.97, 211.64, -3166.77, 0.000, 0.000, 0.000, 18:29:44.520
177, -124.67, 98.81, 221.07, -3058.13, 0.000, 0.000, 0.000, 18:29:44.535
178, -85.41, 98.45, 224.66, -3031.00, 0.000, 0.000, 0.000, 18:29:44.535
179, -78.50, 113.20, 222.93, -3062.21, 0.000, 0.000, 0.000, 18:29:44.536
180, -119.31, 108.57, 225.64, -3112.79, 0.000, 0.000, 0.000, 18:29:44.536
181, -123.05, 96.37, 225.90, -3069.44, 0.000, 0.000, 0.000, 18:29:44.550
182, -76.68, 96.20, 218.92, -3075.42, 0.000, 0.000, 0.000, 18:29:44.550
183, -89.71, 109.30, 221.70, -3048.43, 0.000, 0.000, 0.000, 18:29:44.580
184, -115.84, 114.23, 222.94, -3141.09, 0.000, 0.000, 0.000, 18:29:44.580
185, -108.31, 99.64, 220.15, -3132.58, 0.000, 0.000, 0.000, 18:29:44.581
186, -84.74, 94.30, 222.04, -3023.10, 0.000, 0.000, 0.000, 18:29:44.581
187, -81.91, 104.91, 224.25, -3076.82, 0.000, 0.000, 0.000, 18:29:44.581
188, -106.09, 117.30, 229.33, -3131.21, 0.000, 0.000, 0.000, 18:29:44.581
189, -110.66, 101.75, 232.15, -3085.91, 0.000, 0.000, 0.000, 18:29:44.582
190, -76.25, 100.54, 230.14, -3031.39, 0.000, 0.000, 0.000, 18:29:44.582
191, -34.81, 123.42, 213.65, -3203.09, 0.000, 0.000, 0.000, 18:29:44.595
192, -112.83, 112.82, 229.98, -3103.45, 0.000, 0.000, 0.000, 18:29:44.598
193, -115.68, 96.88, 227.91, -3092.51, 0.000, 0.000, 0.000, 18:29:44.610
194, -83.95, 94.44, 212.43, -3056.89, 0.000, 0.000, 0.000, 18:29:44.610
195, -80.44, 108.23, 223.04, -3061.81, 0.000, 0.000, 0.000, 18:29:44.625
196, -110.92, 107.53, 224.75, -3143.79, 0.000, 0.000, 0.000, 18:29:44.625
197, -108.00, 104.66, 224.04, -3113.16, 0.000, 0.000, 0.000, 18:29:44.626
198, -89.57, 88.53, 220.75, -3010.87, 0.000, 0.000, 0.000, 18:29:44.626
199, -90.28, 97.46, 214.88, -3077.58, 0.000, 0.000, 0.000, 18:29:44.640
200, -104.06, 112.67, 218.44, -3176.40, 0.000, 0.000, 0.000, 18:29:44.640
0, -119.99, 93.87, 226.83, -3082.49, 0.000, 0.000, 0.000, 18:29:44.641
1, -91.40, 82.58, 223.90, -3027.66, 0.000, 0.000, 0.000, 18:29:44.655
2, -67.43, 103.38, 223.29, -3122.22, 0.000, 0.000, 0.000, 18:29:44.655
3, -114.20, 109.94, 227.15, -3117.43, 0.000, 0.000, 0.000, 18:29:44.670
4, -116.05, 94.89, 230.57, -3085.71, 0.000, 0.000, 0.000, 18:29:44.670
5, -81.28, 97.15, 224.54, -3031.23, 0.000, 0.000, 0.000, 18:29:44.671
6, -82.23, 112.65, 225.24, -3055.37, 0.000, 0.000, 0.000, 18:29:44.671
7, -111.31, 113.18, 226.14, -3131.57, 0.000, 0.000, 0.000, 18:29:44.685
8, -102.68, 102.59, 216.44, -3147.70, 0.000, 0.000, 0.000, 18:29:44.685
9, -87.75, 84.51, 220.68, -3021.51, 0.000, 0.000, 0.000, 18:29:44.700
10, -85.75, 98.11, 217.41, -3049.05, 0.000, 0.000, 0.000, 18:29:44.700
11, -109.00, 110.28, 225.95, -3122.80, 0.000, 0.000, 0.000, 18:29:44.701
12, -117.12, 98.29, 230.99, -3065.70, 0.000, 0.000, 0.000, 18:29:44.701
13, -91.53, 84.57, 220.21, -3025.22, 0.000, 0.000, 0.000, 18:29:44.715
14, -67.50, 105.08, 214.39, -3130.85, 0.000, 0.000, 0.000, 18:29:44.715
15, -105.12, 110.76, 223.27, -3149.15, 0.000, 0.000, 0.000, 18:29:44.730
16, -108.10, 100.42, 227.94, -3108.78, 0.000, 0.000, 0.000, 18:29:44.730
17, -81.15, 95.59, 219.24, -3040.55, 0.000, 0.000, 0.000, 18:29:44.731
18, -79.61, 104.48, 225.02, -3037.22, 0.000, 0.000, 0.000, 18:29:44.731
19, -106.01, 103.39, 230.33, -3132.99, 0.000, 0.000, 0.000, 18:29:44.745
20, -97.78, 100.01, 225.14, -3150.47, 0.000, 0.000, 0.000, 18:29:44.745
21, -91.41, 82.22, 221.74, -3017.86, 0.000, 0.000, 0.000, 18:29:44.760
22, -85.88, 97.53, 220.56, -3060.91, 0.000, 0.000, 0.000, 18:29:44.760
23, -112.07, 102.69, 216.12, -3146.51, 0.000, 0.000, 0.000, 18:29:44.761
24, -121.57, 100.64, 225.86, -3089.87, 0.000, 0.000, 0.000, 18:29:44.761
25, -93.29, 84.90, 214.89, -3047.35, 0.000, 0.000, 0.000, 18:29:44.775
26, -81.36, 100.94, 206.81, -3107.94, 0.000, 0.000, 0.000, 18:29:44.775
27, -126.39, 103.12, 216.46, -3110.75, 0.000, 0.000, 0.000, 18:29:44.790
28, -122.13, 95.70, 222.71, -3093.41, 0.000, 0.000, 0.000, 18:29:44.790
29, -86.67, 98.80, 223.67, -3016.76, 0.000, 0.000, 0.000, 18:29:44.791
30, -92.15, 99.55, 217.11, -3039.22, 0.000, 0.000, 0.000, 18:29:44.791
31, -117.87, 113.92, 228.16, -3129.28, 0.000, 0.000, 0.000, 18:29:44.805
32, -108.55, 101.27, 219.84, -3142.52, 0.000, 0.000, 0.000, 18:29:44.805
33, -95.61, 87.90, 218.90, -3014.03, 0.000, 0.000, 0.000, 18:29:44.820
34, -85.02, 111.02, 215.35, -3078.03, 0.000, 0.000, 0.000, 18:29:44.820
35, -108.05, 122.02, 219.02, -3147.21, 0.000, 0.000, 0.000, 18:29:44.821
36, -125.28, 97.99, 216.73, -3087.82, 0.000, 0.000, 0.000, 18:29:44.821
37, -93.74, 93.56, 220.54, -3030.25, 0.000, 0.000, 0.000, 18:29:44.835
38, -71.48, 116.22, 216.80, -3092.33, 0.000, 0.000, 0.000, 18:29:44.835
39, -119.27, 111.73, 221.18, -3110.16, 0.000, 0.000, 0.000, 18:29:44.850
40, -114.47, 107.44, 226.62, -3094.07, 0.000, 0.000, 0.000, 18:29:44.850
41, -93.55, 92.61, 206.66, -3072.97, 0.000, 0.000, 0.000, 18:29:44.851
42, -84.93, 101.51, 210.05, -3071.46, 0.000, 0.000, 0.000, 18:29:44.851
43, -118.29, 109.64, 217.56, -3124.10, 0.000, 0.000, 0.000, 18:29:44.865
44, -103.74, 103.28, 220.99, -3134.11, 0.000, 0.000, 0.000, 18:29:44.865
45, -95.61, 82.39, 216.50, -3028.58, 0.000, 0.000, 0.000, 18:29:44.895
46, -76.56, 104.74, 223.95, -3066.64, 0.000, 0.000, 0.000, 18:29:44.895
47, -106.17, 115.79, 219.89, -3146.79, 0.000, 0.000, 0.000, 18:29:44.896
48, -120.03, 95.45, 227.60, -3066.93, 0.000, 0.000, 0.000, 18:29:44.896
49, -89.32, 86.76, 222.50, -3010.31, 0.000, 0.000, 0.000, 18:29:44.896
50, -79.31, 110.96, 221.51, -3044.84, 0.000, 0.000, 0.000, 18:29:44.896
51, -107.64, 116.77, 227.56, -3111.88, 0.000, 0.000, 0.000, 18:29:44.897
52, -119.49, 97.72, 225.95, -3095.46, 0.000, 0.000, 0.000, 18:29:44.897
53, -54.42, 100.30, 202.61, -3175.85, 0.000, 0.000, 0.000, 18:29:44.910
54, -89.92, 105.77, 224.83, -3017.68, 0.000, 0.000, 0.000, 18:29:44.910
55, -107.38, 116.83, 232.29, -3108.25, 0.000, 0.000, 0.000, 18:29:44.925
56, -116.18, 96.15, 219.73, -3129.41, 0.000, 0.000, 0.000, 18:29:44.925
57, -87.87, 90.65, 226.98, -3005.90, 0.000, 0.000, 0.000, 18:29:44.940
58, -84.83, 95.98, 222.90, -3063.01, 0.000, 0.000, 0.000, 18:29:44.940
59, -102.22, 114.04, 228.41, -3131.64, 0.000, 0.000, 0.000, 18:29:44.941
60, -116.80, 99.52, 229.55, -3076.76, 0.000, 0.000, 0.000, 18:29:44.941
61, -87.77, 92.33, 220.78, -3015.87, 0.000, 0.000, 0.000, 18:29:44.955
62, -69.07, 105.53, 211.30, -3123.63, 0.000, 0.000, 0.000, 18:29:44.955
63, -112.66, 108.44, 227.12, -3106.17, 0.000, 0.000, 0.000, 18:29:44.970
64, -125.31, 89.56, 225.08, -3072.69, 0.000, 0.000, 0.000, 18:29:44.970
65, -87.91, 90.20, 215.95, -3026.83, 0.000, 0.000, 0.000, 18:29:44.971
66, -87.04, 100.68, 221.07, -3039.42, 0.000, 0.000, 0.000, 18:29:44.971
67, -113.44, 112.10, 228.61, -3123.66, 0.000, 0.000, 0.000, 18:29:44.985
68, -101.39, 102.82, 218.89, -3170.71, 0.000, 0.000, 0.000, 18:29:44.985
69, -96.30, 89.38, 218.51, -3011.81, 0.000, 0.000, 0.000, 18:29:45.000
70, -80.84, 102.70, 217.99, -3087.80, 0.000, 0.000, 0.000, 18:29:45.000
71, -104.46, 113.14, 219.24, -3144.17, 0.000, 0.000, 0.000, 18:29:45.001
72, -125.06, 97.69, 225.17, -3070.83, 0.000, 0.000, 0.000, 18:29:45.001
73, -89.51, 91.32, 221.59, -3024.50, 0.000, 0.000, 0.000, 18:29:45.015
74, -78.60, 104.15, 210.04, -3101.65, 0.000, 0.000, 0.000, 18:29:45.015
75, -110.75, 111.48, 226.37, -3120.09, 0.000, 0.000, 0.000, 18:29:45.030
76, -127.59, 96.38, 221.46, -3078.00, 0.000, 0.000, 0.000, 18:29:45.030
77, -99.43, 82.60, 212.58, -3012.52, 0.000, 0.000, 0.000, 18:29:45.031
78, -87.54, 97.43, 222.49, -3034.83, 0.000, 0.000, 0.000, 18:29:45.031
79, -113.60, 111.49, 220.86, -3128.88, 0.000, 0.000, 0.000, 18:29:45.048
80, -106.19, 100.59, 219.44, -3129.40, 0.000, 0.000, 0.000, 18:29:45.048
81, -95.12, 87.61, 218.44, -2991.19, 0.000, 0.000, 0.000, 18:29:45.060
82, -82.38, 98.66, 222.26, -3051.62, 0.000, 0.000, 0.000, 18:29:45.060
83, -101.57, 117.69, 228.26, -3117.38, 0.000, 0.000, 0.000, 18:29:45.061
84, -118.30, 100.32, 229.90, -3060.16, 0.000, 0.000, 0.000, 18:29:45.061
85, -90.17, 89.60, 223.65, -3034.00, 0.000, 0.000, 0.000, 18:29:45.075
86, -70.38, 104.90, 211.96, -3110.15, 0.000, 0.000, 0.000, 18:29:45.075
87, -108.26, 117.47, 229.88, -3105.36, 0.000, 0.000, 0.000, 18:29:45.090
88, -112.41, 97.48, 234.90, -3101.24, 0.000, 0.000, 0.000, 18:29:45.090
89, -89.61, 90.08, 214.35, -3059.57, 0.000, 0.000, 0.000, 18:29:45.091
90, -81.60, 105.25, 220.51, -3043.32, 0.000, 0.000, 0.000, 18:29:45.091
91, -108.65, 118.68, 225.56, -3138.68, 0.000, 0.000, 0.000, 18:29:45.105
92, -106.65, 107.16, 222.83, -3124.30, 0.000, 0.000, 0.000, 18:29:45.105
93, -101.20, 85.02, 215.82, -3030.79, 0.000, 0.000, 0.000, 18:29:45.120
94, -75.55, 112.36, 228.28, -3043.88, 0.000, 0.000, 0.000, 18:29:45.120
95, -98.85, 118.66, 226.52, -3139.62, 0.000, 0.000, 0.000, 18:29:45.121
96, -113.16, 103.49, 233.01, -3081.75, 0.000, 0.000, 0.000, 18:29:45.121
97, -91.50, 87.31, 221.38, -3036.88, 0.000, 0.000, 0.000, 18:29:45.135
98, -66.59, 101.96, 216.40, -3114.08, 0.000, 0.000, 0.000, 18:29:45.135
99, -112.58, 105.03, 219.64, -3135.11, 0.000, 0.000, 0.000, 18:29:45.150
100, -115.46, 97.02, 224.01, -3107.45, 0.000, 0.000, 0.000, 18:29:45.150
101, -79.94, 92.66, 215.88, -3070.20, 0.000, 0.000, 0.000, 18:29:45.151
102, -76.06, 108.84, 218.09, -3083.58, 0.000, 0.000, 0.000, 18:29:45.151
103, -103.87, 117.30, 220.98, -3161.46, 0.000, 0.000, 0.000, 18:29:45.165
104, -102.20, 102.85, 218.83, -3173.26, 0.000, 0.000, 0.000, 18:29:45.165
105, -96.91, 83.01, 210.85, -3019.02, 0.000, 0.000, 0.000, 18:29:45.180
106, -80.22, 106.68, 223.38, -3037.17, 0.000, 0.000, 0.000, 18:29:45.180
107, -100.86, 109.84, 225.58, -3122.98, 0.000, 0.000, 0.000, 18:29:45.181
108, -115.98, 99.53, 233.80, -3097.72, 0.000, 0.000, 0.000, 18:29:45.181
109, -85.11, 85.78, 219.25, -3091.72, 0.000, 0.000, 0.000, 18:29:45.195
110, -58.38, 104.24, 212.83, -3120.91, 0.000, 0.000, 0.000, 18:29:45.195
111, -101.03, 114.84, 232.58, -3111.74, 0.000, 0.000, 0.000, 18:29:45.225
112, -113.05, 100.32, 224.17, -3115.02, 0.000, 0.000, 0.000, 18:29:45.225
113, -86.19, 90.06, 215.11, -3050.53, 0.000, 0.000, 0.000, 18:29:45.225
114, -77.25, 102.86, 221.80, -3059.57, 0.000, 0.000, 0.000, 18:29:45.226
115, -112.66, 107.69, 222.55, -3108.54, 0.000, 0.000, 0.000, 18:29:45.226
116, -124.79, 97.65, 225.46, -3075.88, 0.000, 0.000, 0.000, 18:29:45.226
117, -91.82, 94.01, 231.87, -3006.68, 0.000, 0.000, 0.000, 18:29:45.227
118, -80.95, 106.48, 228.38, -3044.89, 0.000, 0.000, 0.000, 18:29:45.227
119, -72.34, 119.74, 213.02, -3259.91, 0.000, 0.000, 0.000, 18:29:45.240
120, -126.70, 94.99, 228.52, -3099.67, 0.000, 0.000, 0.000, 18:29:45.240
121, -94.02, 86.64, 221.82, -3014.98, 0.000, 0.000, 0.000, 18:29:45.255
122, -84.42, 106.57, 220.85, -3050.26, 0.000, 0.000, 0.000, 18:29:45.255
123, -110.65, 105.05, 230.87, -3102.28, 0.000, 0.000, 0.000, 18:29:45.270
124, -112.65, 99.89, 229.40, -3095.89, 0.000, 0.000, 0.000, 18:29:45.270
125, -79.45, 91.32, 218.47, -3062.56, 0.000, 0.000, 0.000, 18:29:45.271
126, -72.51, 102.75, 224.21, -3070.07, 0.000, 0.000, 0.000, 18:29:45.271
127, -97.85, 112.52, 228.48, -3130.80, 0.000, 0.000, 0.000, 18:29:45.285
128, -103.10, 109.19, 220.12, -3136.81, 0.000, 0.000, 0.000, 18:29:45.285
129, -79.92, 98.26, 228.90, -3016.27, 0.000, 0.000, 0.000, 18:29:45.300
130, -69.62, 107.35, 230.97, -3036.87, 0.000, 0.000, 0.000, 18:29:45.300
131, -97.31, 118.69, 227.83, -3115.92, 0.000, 0.000, 0.000, 18:29:45.301
132, -119.34, 101.46, 227.12, -3086.89, 0.000, 0.000, 0.000, 18:29:45.301
133, -73.15, 95.84, 226.55, -3047.32, 0.000, 0.000, 0.000, 18:29:45.315
134, -57.03, 109.74, 212.55, -3128.51, 0.000, 0.000, 0.000, 18:29:45.315
135, -105.49, 114.76, 223.10, -3131.59, 0.000, 0.000, 0.000, 18:29:45.330
136, -119.98, 93.93, 220.00, -3123.66, 0.000, 0.000, 0.000, 18:29:45.330
137, -85.90, 88.80, 212.79, -3073.94, 0.000, 0.000, 0.000, 18:29:45.331
138, -78.46, 105.68, 213.53, -3080.35, 0.000, 0.000, 0.000, 18:29:45.331
139, -104.51, 117.65, 213.28, -3159.78, 0.000, 0.000, 0.000, 18:29:45.345
140, -108.44, 103.74, 211.75, -3158.79, 0.000, 0.000, 0.000, 18:29:45.345
141, -97.41, 87.80, 209.93, -3041.87, 0.000, 0.000, 0.000, 18:29:45.360
142, -85.83, 97.49, 206.77, -3065.85, 0.000, 0.000, 0.000, 18:29:45.360
143, -107.54, 114.17, 213.06, -3160.02, 0.000, 0.000, 0.000, 18:29:45.361
144, -122.54, 102.16, 216.79, -3098.12, 0.000, 0.000, 0.000, 18:29:45.361
145, -98.53, 91.89, 215.65, -3019.71, 0.000, 0.000, 0.000, 18:29:45.375
146, -75.63, 103.87, 209.36, -3078.95, 0.000, 0.000, 0.000, 18:29:45.376
147, -120.66, 110.30, 216.42, -3094.95, 0.000, 0.000, 0.000, 18:29:45.390
148, -117.91, 99.60, 224.85, -3110.35, 0.000, 0.000, 0.000, 18:29:45.390
149, -86.94, 89.73, 209.35, -3054.89, 0.000, 0.000, 0.000, 18:29:45.391
150, -81.31, 108.95, 220.30, -3041.25, 0.000, 0.000, 0.000, 18:29:45.391
151, -114.19, 109.00, 213.57, -3143.96, 0.000, 0.000, 0.000, 18:29:45.405
152, -108.71, 114.33, 220.84, -3135.49, 0.000, 0.000, 0.000, 18:29:45.405
153, -95.35, 108.38, 221.19, -3007.76, 0.000, 0.000, 0.000, 18:29:45.420
154, -70.44, 127.67, 225.88, -3021.24, 0.000, 0.000, 0.000, 18:29:45.420
155, -87.16, 148.94, 233.57, -3095.57, 0.000, 0.000, 0.000, 18:29:45.425
156, -110.70, 141.38, 234.78, -3047.00, 0.000, 0.000, 0.000, 18:29:45.425
157, -78.37, 135.44, 227.64, -3011.76, 0.000, 0.000, 0.000, 18:29:45.435
158, -39.54, 165.76, 231.10, -3058.51, 0.000, 0.000, 0.000, 18:29:45.435
159, -81.05, 174.17, 248.45, -3057.24, 0.000, 0.000, 0.000, 18:29:45.450
160, -99.26, 157.55, 236.39, -3071.16, 0.000, 0.000, 0.000, 18:29:45.450
161, -73.58, 154.69, 228.63, -2982.27, 0.000, 0.000, 0.000, 18:29:45.451
162, -69.68, 155.31, 227.37, -2975.08, 0.000, 0.000, 0.000, 18:29:45.451
163, -97.63, 153.00, 233.84, -3076.20, 0.000, 0.000, 0.000, 18:29:45.465
164, -94.87, 135.30, 226.84, -3116.25, 0.000, 0.000, 0.000, 18:29:45.465
165, -84.58, 120.83, 228.32, -2981.37, 0.000, 0.000, 0.000, 18:29:45.480
166, -77.74, 118.62, 225.78, -3019.18, 0.000, 0.000, 0.000, 18:29:45.480
167, -96.31, 127.06, 233.31, -3107.80, 0.000, 0.000, 0.000, 18:29:45.481
168, -118.14, 104.10, 231.45, -3072.15, 0.000, 0.000, 0.000, 18:29:45.481
169, -86.29, 85.77, 225.16, -3042.29, 0.000, 0.000, 0.000, 18:29:45.497
170, -61.79, 107.08, 217.58, -3104.45, 0.000, 0.000, 0.000, 18:29:45.497
171, -105.72, 106.68, 225.47, -3115.60, 0.000, 0.000, 0.000, 18:29:45.510
172, -124.28, 86.24, 221.43, -3113.08, 0.000, 0.000, 0.000, 18:29:45.510
173, -88.18, 81.43, 226.80, -3061.81, 0.000, 0.000, 0.000, 18:29:45.511
174, -76.29, 90.54, 231.00, -3045.97, 0.000, 0.000, 0.000, 18:29:45.511
175, -102.49, 96.35, 232.01, -3130.95, 0.000, 0.000, 0.000, 18:29:45.540
176, -106.57, 91.16, 228.11, -3165.83, 0.000, 0.000, 0.000, 18:29:45.540
177, -104.29, 72.65, 219.63, -3029.54, 0.000, 0.000, 0.000, 18:29:45.540
178, -86.80, 76.39, 218.02, -3070.23, 0.000, 0.000, 0.000, 18:29:45.541
179, -114.68, 83.81, 216.62, -3145.89, 0.000, 0.000, 0.000, 18:29:45.541
180, -129.70, 76.15, 220.29, -3102.63, 0.000, 0.000, 0.000, 18:29:45.541
181, -101.99, 63.18, 210.75, -3053.30, 0.000, 0.000, 0.000, 18:29:45.555
182, -52.16, 86.68, 212.21, -3133.99, 0.000, 0.000, 0.000, 18:29:45.556
183, -116.10, 86.94, 224.15, -3126.11, 0.000, 0.000, 0.000, 18:29:45.570
184, -136.84, 67.97, 218.50, -3099.93, 0.000, 0.000, 0.000, 18:29:45.570
185, -101.57, 59.98, 213.22, -3066.21, 0.000, 0.000, 0.000, 18:29:45.571
186, -94.71, 71.27, 211.39, -3060.97, 0.000, 0.000, 0.000, 18:29:45.571
187, -120.45, 81.08, 210.37, -3155.13, 0.000, 0.000, 0.000, 18:29:45.585
188, -114.95, 77.15, 211.66, -3178.97, 0.000, 0.000, 0.000, 18:29:45.585
189, -110.24, 64.10, 217.95, -3033.26, 0.000, 0.000, 0.000, 18:29:45.600
190, -100.34, 71.78, 208.96, -3072.68, 0.000, 0.000, 0.000, 18:29:45.600
191, -114.93, 88.02, 215.63, -3150.19, 0.000, 0.000, 0.000, 18:29:45.601
192, -135.48, 76.82, 212.67, -3126.27, 0.000, 0.000, 0.000, 18:29:45.601
193, -105.73, 67.70, 215.29, -3047.94, 0.000, 0.000, 0.000, 18:29:45.615
194, -82.58, 81.14, 205.17, -3113.78, 0.000, 0.000, 0.000, 18:29:45.615
195, -119.26, 90.22, 218.18, -3134.31, 0.000, 0.000, 0.000, 18:29:45.630
196, -128.37, 83.07, 216.79, -3131.26, 0.000, 0.000, 0.000, 18:29:45.630
197, -105.85, 67.28, 204.86, -3049.83, 0.000, 0.000, 0.000, 18:29:45.631
198, -98.86, 81.27, 209.51, -3042.74, 0.000, 0.000, 0.000, 18:29:45.631
199, -108.41, 99.79, 219.17, -3142.79, 0.000, 0.000, 0.000, 18:29:45.645
200, -107.71, 90.32, 214.72, -3176.89, 0.000, 0.000, 0.000, 18:29:45.645
0, -93.81, 83.46, 220.77, -3050.80, 0.000, 0.000, 0.000, 18:29:45.646
1, -77.49, 86.14, 212.14, -3088.07, 0.000, 0.000, 0.000, 18:29:45.660
2, -92.73, 104.46, 213.29, -3182.23, 0.000, 0.000, 0.000, 18:29:45.660
3, -126.07, 92.40, 228.48, -3079.46, 0.000, 0.000, 0.000, 18:29:45.675
4, -96.81, 81.37, 225.10, -3031.25, 0.000, 0.000, 0.000, 18:29:45.675
5, -80.25, 96.38, 220.71, -3033.92, 0.000, 0.000, 0.000, 18:29:45.676
6, -110.00, 102.87, 227.65, -3106.12, 0.000, 0.000, 0.000, 18:29:45.676
7, -116.44, 97.06, 230.22, -3129.08, 0.000, 0.000, 0.000, 18:29:45.690
8, -83.09, 82.89, 209.90, -3108.84, 0.000, 0.000, 0.000, 18:29:45.690
9, -79.49, 99.51, 221.81, -3025.87, 0.000, 0.000, 0.000, 18:29:45.705
10, -107.21, 103.97, 225.05, -3134.70, 0.000, 0.000, 0.000, 18:29:45.705
11, -109.97, 101.57, 224.86, -3150.05, 0.000, 0.000, 0.000, 18:29:45.706
12, -80.97, 94.54, 225.35, -3053.52, 0.000, 0.000, 0.000, 18:29:45.706
13, -72.06, 103.93, 229.92, -3073.45, 0.000, 0.000, 0.000, 18:29:45.720
14, -87.02, 111.38, 222.52, -3182.77, 0.000, 0.000, 0.000, 18:29:45.720
15, -119.85, 99.50, 234.23, -3105.40, 0.000, 0.000, 0.000, 18:29:45.735
16, -81.60, 98.61, 233.74, -3043.83, 0.000, 0.000, 0.000, 18:29:45.735
17, -76.73, 103.20, 220.54, -3047.78, 0.000, 0.000, 0.000, 18:29:45.736
18, -107.93, 105.06, 229.44, -3100.81, 0.000, 0.000, 0.000, 18:29:45.736
19, -118.18, 98.24, 232.63, -3097.87, 0.000, 0.000, 0.000, 18:29:45.750
20, -78.98, 84.77, 220.29, -3080.75, 0.000, 0.000, 0.000, 18:29:45.750
21, -83.80, 91.23, 214.98, -3061.05, 0.000, 0.000, 0.000, 18:29:45.765
22, -101.56, 109.19, 223.38, -3158.17, 0.000, 0.000, 0.000, 18:29:45.765
23, -116.84, 96.41, 220.51, -3135.55, 0.000, 0.000, 0.000, 18:29:45.766
24, -88.74, 88.36, 225.17, -3050.47, 0.000, 0.000, 0.000, 18:29:45.766
25, -68.38, 103.39, 228.30, -3073.80, 0.000, 0.000, 0.000, 18:29:45.780
26, -86.86, 112.05, 220.42, -3166.17, 0.000, 0.000, 0.000, 18:29:45.780
27, -120.84, 99.99, 223.58, -3111.60, 0.000, 0.000, 0.000, 18:29:45.795
28, -87.14, 91.80, 224.83, -3042.85, 0.000, 0.000, 0.000, 18:29:45.795
29, -79.62, 90.28, 211.98, -3058.11, 0.000, 0.000, 0.000, 18:29:45.796
30, -105.02, 110.84, 224.52, -3095.76, 0.000, 0.000, 0.000, 18:29:45.796
31, -124.08, 94.62, 218.45, -3130.07, 0.000, 0.000, 0.000, 18:29:45.810
32, -90.19, 88.04, 200.40, -3103.92, 0.000, 0.000, 0.000, 18:29:45.810
33, -90.74, 92.27, 207.59, -3049.34, 0.000, 0.000, 0.000, 18:29:45.825
34, -107.21, 106.34, 222.37, -3137.68, 0.000, 0.000, 0.000, 18:29:45.825
35, -111.94, 99.98, 220.83, -3148.42, 0.000, 0.000, 0.000, 18:29:45.826
36, -89.21, 91.09, 223.57, -3051.34, 0.000, 0.000, 0.000, 18:29:45.826
37, -79.31, 93.42, 219.66, -3063.14, 0.000, 0.000, 0.000, 18:29:45.855
38, -88.78, 111.27, 225.73, -3174.01, 0.000, 0.000, 0.000, 18:29:45.855
39, -116.02, 98.69, 228.86, -3113.90, 0.000, 0.000, 0.000, 18:29:45.856
40, -99.11, 83.71, 222.07, -3047.46, 0.000, 0.000, 0.000, 18:29:45.856
41, -75.94, 95.20, 221.36, -3049.30, 0.000, 0.000, 0.000, 18:29:45.856
42, -108.79, 109.71, 226.19, -3121.05, 0.000, 0.000, 0.000, 18:29:45.856
43, -122.01, 96.75, 222.14, -3113.57, 0.000, 0.000, 0.000, 18:29:45.871
44, -72.85, 95.63, 206.85, -3130.77, 0.000, 0.000, 0.000, 18:29:45.871
45, -92.08, 92.42, 216.33, -3034.85, 0.000, 0.000, 0.000, 18:29:45.885
46, -105.30, 102.36, 225.05, -3106.58, 0.000, 0.000, 0.000, 18:29:45.885
